%OpenBCI Raw EEG Data
%Number of channels = 8
%Sample Rate = 250 Hz
%Board = OpenBCI_GUI$BoardCytonSerial
Sample Index, EXG Channel 0, EXG Channel 1, EXG Channel 2, EXG Channel 3, EXG Channel 4, EXG Channel 5, EXG Channel 6, EXG Channel 7, Accel Channel 0, Accel Channel 1, Accel Channel 2, Other, Other, Other, Other, Other, Other, Other, Analog Channel 0, Analog Channel 1, Analog Channel 2, Timestamp, Other, Timestamp (Formatted)
252.0, -86934.02551818198, -119825.71271964464, 46038.469199951796, 53369.46140163677, 63803.76980349658, 113521.78317568102, 64615.316941179866, 71533.76299545325, 0.0, 0.0, 0.0, 192.0, 0.0, 0.0, 0.0, 0.0, 0.0, 0.0, 0.0, 0.0, 0.0, 1.6665565825417323E9, 0.0, 2022-10-23 13:23:02.541
253.0, -86951.28106490149, -119843.8846878868, 48113.89572786042, 53384.302959955094, 63858.01748728961, 114350.31763915035, 65829.95543837016, 72655.77586362074, 0.0, 0.0, 0.0, 192.0, 0.0, 0.0, 0.0, 0.0, 0.0, 0.0, 0.0, 0.0, 0.0, 1.6665565825417511E9, 0.0, 2022-10-23 13:23:02.541
254.0, -86895.66992469667, -119792.56508261742, 46860.432250551254, 53073.770174237514, 63591.87526606027, 113720.33372167751, 64941.63005848289, 71593.73272582683, 0.0, 0.0, 0.0, 192.0, 0.0, 0.0, 0.0, 0.0, 0.0, 0.0, 0.0, 0.0, 0.0, 1.6665565825417607E9, 0.0, 2022-10-23 13:23:02.541
255.0, -86894.84291015184, -119788.56412035992, 45336.04327869932, 53191.42975705025, 63637.60693521583, 113143.88223217515, 64074.4717805948, 70846.51390868591, 0.0, 0.0, 0.0, 192.0, 0.0, 0.0, 0.0, 0.0, 0.0, 0.0, 0.0, 0.0, 0.0, 1.6665565825417695E9, 0.0, 2022-10-23 13:23:02.541
0.0, -86920.65917499771, -119811.67582412671, 45731.75856253607, 53328.26713660564, 63760.98856460912, 113380.8107234014, 64414.44181376002, 71328.6857400758, 0.0, 0.0, 0.0, 192.0, 0.0, 0.0, 0.0, 0.0, 0.0, 0.0, 0.0, 0.0, 0.0, 1.6665565825417788E9, 0.0, 2022-10-23 13:23:02.541
1.0, -86943.83793399787, -119834.89928661578, 47836.37646870333, 53425.00548660821, 63868.16517927232, 114240.1682424746, 65678.79059061893, 72555.19301357187, 0.02, 0.968, 0.054, 192.0, 0.0, 160.0, 30.0, 64.0, 1.0, 176.0, 0.0, 0.0, 0.0, 1.6665565825417871E9, 0.0, 2022-10-23 13:23:02.541
2.0, -86885.0528460804, -119780.36103014482, 47261.78017399075, 53113.86920379034, 63634.701208436636, 113881.82507536712, 65194.294177805685, 71875.74468561944, 0.02, 0.968, 0.054, 192.0, 0.0, 0.0, 0.0, 0.0, 0.0, 0.0, 0.0, 0.0, 0.0, 1.6665565825417984E9, 0.0, 2022-10-23 13:23:02.541
3.0, -86883.17529954616, -119774.08018995287, 45405.69131442205, 53166.976948616146, 63625.73815891006, 113146.96677290997, 64102.523219886214, 70859.00853383643, 0.02, 0.968, 0.054, 192.0, 0.0, 0.0, 0.0, 0.0, 0.0, 0.0, 0.0, 0.0, 0.0, 1.6665565825418077E9, 0.0, 2022-10-23 13:23:02.541
4.0, -86925.39774482224, -119814.26862648352, 45495.545327132386, 53293.82309840001, 63735.75344511908, 113261.45240801007, 64261.779399130275, 71168.49078756462, 0.02, 0.968, 0.054, 192.0, 0.0, 0.0, 0.0, 0.0, 0.0, 0.0, 0.0, 0.0, 0.0, 1.6665565825418167E9, 0.0, 2022-10-23 13:23:02.541
5.0, -86960.40057663925, -119848.2879815445, 47450.205379748986, 53434.77319893518, 63871.09325779597, 114084.84597025467, 65467.0525153938, 72381.6317178764, 0.02, 0.968, 0.054, 192.0, 0.0, 0.0, 0.0, 0.0, 0.0, 0.0, 0.0, 0.0, 0.0, 1.6665565825418255E9, 0.0, 2022-10-23 13:23:02.541
6.0, -86903.62714572277, -119796.43193440819, 47634.87549243874, 53159.355003756886, 63681.952796215155, 114045.14927210203, 65447.159462828575, 72158.1813285567, 0.02, 0.968, 0.054, 192.0, 0.0, 0.0, 0.0, 0.0, 0.0, 0.0, 0.0, 0.0, 0.0, 1.6665565825418344E9, 0.0, 2022-10-23 13:23:02.541
7.0, -86885.16460480269, -119776.8741580098, 45549.90476964769, 53132.53291041052, 63607.65559764572, 113185.21060767301, 64184.44236331491, 70918.01713919845, 0.02, 0.968, 0.054, 192.0, 0.0, 0.0, 0.0, 0.0, 0.0, 0.0, 0.0, 0.0, 0.0, 1.666556582541843E9, 0.0, 2022-10-23 13:23:02.541
8.0, -86915.47357028408, -119803.91976880071, 45356.696290576016, 53274.60059816845, 63727.952686304176, 113197.23584618997, 64181.111953391075, 71072.08771372888, 0.02, 0.968, 0.054, 192.0, 0.0, 0.0, 0.0, 0.0, 0.0, 0.0, 0.0, 0.0, 0.0, 1.6665565825418513E9, 0.0, 2022-10-23 13:23:02.541
9.0, -86956.2208004261, -119845.24814429857, 47041.03434575014, 53436.896614658435, 63869.84156010647, 113935.20104112638, 65255.31444016867, 72183.30468932446, 0.02, 0.968, 0.054, 192.0, 0.0, 0.0, 0.0, 0.0, 0.0, 0.0, 0.0, 0.0, 0.0, 1.66655658254186E9, 0.0, 2022-10-23 13:23:02.541
10.0, -86923.63195701026, -119819.14130677478, 47955.62302537239, 53223.10217894342, 63730.72430261664, 114212.69794853902, 65691.3075675139, 72418.66855843885, 0.02, 0.968, 0.054, 192.0, 0.0, 0.0, 0.0, 0.0, 0.0, 0.0, 0.0, 0.0, 0.0, 1.6665565825418687E9, 0.0, 2022-10-23 13:23:02.541
11.0, -86882.34828500132, -119778.61759407731, 45812.7612844421, 53103.60975308535, 63579.00066125401, 113289.03446066791, 64350.091141473196, 71035.81083247792, 0.016, 0.9560000000000001, 0.05, 192.0, 0.0, 128.0, 29.0, 224.0, 1.0, 144.0, 0.0, 0.0, 0.0, 1.6665565825418775E9, 0.0, 2022-10-23 13:23:02.541
12.0, -86906.68933471314, -119799.270605954, 45292.949115389485, 53262.888284073866, 63704.192781948186, 113163.14943589563, 64140.342371504594, 70986.54758769841, 0.016, 0.9560000000000001, 0.05, 192.0, 0.0, 0.0, 0.0, 0.0, 0.0, 0.0, 0.0, 0.0, 0.0, 1.666556582541987E9, 0.0, 2022-10-23 13:23:02.541
13.0, -86941.82627699689, -119832.26178077004, 46630.67866929516, 53427.53123373166, 63852.5189581536, 113773.95555662579, 65022.99040830021, 71946.9796951985, 0.016, 0.9560000000000001, 0.05, 192.0, 0.0, 0.0, 0.0, 0.0, 0.0, 0.0, 0.0, 0.0, 0.0, 1.6665565825419958E9, 0.0, 2022-10-23 13:23:02.541
14.0, -86924.97306167759, -119818.22488525212, 48138.952033394824, 53297.86876414642, 63790.33640507894, 114317.6840922456, 65839.05259836347, 72598.0860111816, 0.016, 0.9560000000000001, 0.05, 192.0, 0.0, 0.0, 0.0, 0.0, 0.0, 0.0, 0.0, 0.0, 0.0, 1.666556582542004E9, 0.0, 2022-10-23 13:23:02.542
15.0, -86875.44159596463, -119769.65454455074, 46147.83628557161, 53083.917866220225, 63572.02691698396, 113422.36261634382, 64551.61446948224, 71214.02129102008, 0.016, 0.9560000000000001, 0.05, 192.0, 0.0, 0.0, 0.0, 0.0, 0.0, 0.0, 0.0, 0.0, 0.0, 1.6665565825420125E9, 0.0, 2022-10-23 13:23:02.542
16.0, -86902.80013117792, -119791.84982679485, 45256.33695797169, 53242.01175475261, 63675.00140368956, 113131.52171749136, 64104.71369084284, 70920.9452177221, 0.016, 0.9560000000000001, 0.05, 192.0, 0.0, 0.0, 0.0, 0.0, 0.0, 0.0, 0.0, 0.0, 0.0, 1.6665565825420206E9, 0.0, 2022-10-23 13:23:02.542
17.0, -86932.08091641437, -119819.36482421933, 46247.18978967545, 53399.502146184706, 63819.885411248855, 113616.33105472698, 64802.55750448198, 71713.64983482956, 0.016, 0.9560000000000001, 0.05, 192.0, 0.0, 0.0, 0.0, 0.0, 0.0, 0.0, 0.0, 0.0, 0.0, 1.6665565825420287E9, 0.0, 2022-10-23 13:23:02.542
18.0, -86933.84670422635, -119824.30455974396, 48184.30372289464, 53363.09115446701, 63831.75418755462, 114369.31662193735, 65916.43433766774, 72694.60084373961, 0.016, 0.9560000000000001, 0.05, 192.0, 0.0, 0.0, 0.0, 0.0, 0.0, 0.0, 0.0, 0.0, 0.0, 1.666556582542039E9, 0.0, 2022-10-23 13:23:02.542
19.0, -86877.05092156542, -119767.50877708301, 46567.78086039792, 53078.106412661844, 63572.831579784346, 113590.9171212813, 64820.37184481286, 71449.60867757902, 0.016, 0.9560000000000001, 0.05, 192.0, 0.0, 0.0, 0.0, 0.0, 0.0, 0.0, 0.0, 0.0, 0.0, 1.6665565825420468E9, 0.0, 2022-10-23 13:23:02.542
20.0, -86894.4629304961, -119779.44460862216, 45269.01039707785, 53216.55311781802, 63647.79933068745, 113104.16318227806, 64100.53391462969, 70869.20092930805, 0.016, 0.9560000000000001, 0.05, 192.0, 0.0, 0.0, 0.0, 0.0, 0.0, 0.0, 0.0, 0.0, 0.0, 1.666556582542055E9, 0.0, 2022-10-23 13:23:02.542
21.0, -86931.94680594765, -119816.52615267351, 45909.052599555565, 53361.3477183995, 63786.08957363243, 113452.71628531412, 64593.278121146934, 71483.53862566217, 0.016, 0.9560000000000001, 0.048, 192.0, 0.0, 128.0, 29.0, 224.0, 1.0, 128.0, 0.0, 0.0, 0.0, 1.6665565825420628E9, 0.0, 2022-10-23 13:23:02.542
22.0, -86951.83985851287, -119837.96147560615, 48027.59564251848, 53405.648875909916, 63847.73568484017, 114307.73756596299, 65847.16628160074, 72658.3463142331, 0.016, 0.9560000000000001, 0.048, 192.0, 0.0, 0.0, 0.0, 0.0, 0.0, 0.0, 0.0, 0.0, 0.0, 1.666556582542071E9, 0.0, 2022-10-23 13:23:02.542
23.0, -86884.18112804665, -119775.2201289201, 46998.40956907387, 53090.31046513444, 63587.20375146911, 113755.31420175006, 65086.5140660422, 71712.86752377362, 0.016, 0.9560000000000001, 0.048, 192.0, 0.0, 0.0, 0.0, 0.0, 0.0, 0.0, 0.0, 0.0, 0.0, 1.666556582542079E9, 0.0, 2022-10-23 13:23:02.542
24.0, -86881.4095117342, -119772.31440214091, 45334.27749088735, 53188.009940148586, 63615.70222564963, 113103.20205726649, 64123.578563163115, 70854.26996401191, 0.016, 0.9560000000000001, 0.048, 192.0, 0.0, 0.0, 0.0, 0.0, 0.0, 0.0, 0.0, 0.0, 0.0, 1.6665565825420868E9, 0.0, 2022-10-23 13:23:02.542
25.0, -86913.8642446833, -119801.81870482191, 45644.586759160375, 53327.86480520544, 63743.62125916735, 113317.24236217051, 64422.1084621082, 71292.76648673612, 0.016, 0.9560000000000001, 0.048, 192.0, 0.0, 0.0, 0.0, 0.0, 0.0, 0.0, 0.0, 0.0, 0.0, 1.6665565825420947E9, 0.0, 2022-10-23 13:23:02.542
26.0, -86943.94969272014, -119832.26178077004, 47740.57689196788, 53443.13275136147, 63859.85033033494, 114194.92831169705, 65697.94603561712, 72540.01617908671, 0.016, 0.9560000000000001, 0.048, 192.0, 0.0, 0.0, 0.0, 0.0, 0.0, 0.0, 0.0, 0.0, 0.0, 1.6665565825421023E9, 0.0, 2022-10-23 13:23:02.542
27.0, -86885.81280539189, -119780.58454758937, 47433.083943496225, 53130.253032476074, 63626.20754554362, 113942.33124760762, 65367.967232223426, 72006.56944591635, 0.016, 0.9560000000000001, 0.048, 192.0, 0.0, 0.0, 0.0, 0.0, 0.0, 0.0, 0.0, 0.0, 0.0, 1.6665565825421405E9, 0.0, 2022-10-23 13:23:02.542
28.0, -86874.65928490869, -119767.03939044946, 45469.66200705314, 53157.879788622835, 63594.73628935055, 113147.32440082126, 64194.14302040852, 70890.41273479613, 0.016, 0.9560000000000001, 0.048, 192.0, 0.0, 0.0, 0.0, 0.0, 0.0, 0.0, 0.0, 0.0, 0.0, 1.6665565825421488E9, 0.0, 2022-10-23 13:23:02.542
29.0, -86906.9128521577, -119795.09082974088, 45496.37234167723, 53302.40616827085, 63730.76900610555, 113258.65843995314, 64327.11354817314, 71173.36346785587, 0.016, 0.9560000000000001, 0.048, 192.0, 0.0, 0.0, 0.0, 0.0, 0.0, 0.0, 0.0, 0.0, 0.0, 1.6665565825421567E9, 0.0, 2022-10-23 13:23:02.542
30.0, -86945.00022470954, -119832.5300017035, 47400.74096926939, 53444.54091126215, 63860.923214068804, 114085.06948769922, 65518.03684449635, 72373.04864800557, 0.02, 0.9560000000000001, 0.05, 192.0, 0.0, 160.0, 29.0, 224.0, 1.0, 144.0, 0.0, 0.0, 0.0, 1.6665565825421648E9, 0.0, 2022-10-23 13:23:02.542
31.0, -86896.65340145271, -119789.30172792694, 47835.99648904759, 53175.44825976471, 63662.596185516864, 114140.5465174373, 65638.60215408828, 72287.9108533753, 0.02, 0.9560000000000001, 0.05, 192.0, 0.0, 0.0, 0.0, 0.0, 0.0, 0.0, 0.0, 0.0, 0.0, 1.6665565825421731E9, 0.0, 2022-10-23 13:23:02.542
32.0, -86863.9527993146, -119757.53989905595, 45683.2329253236, 53126.54264289649, 63564.67319305816, 113228.19301226057, 64309.72389098691, 70964.95580255458, 0.02, 0.9560000000000001, 0.05, 192.0, 0.0, 0.0, 0.0, 0.0, 0.0, 0.0, 0.0, 0.0, 0.0, 1.6665565825421808E9, 0.0, 2022-10-23 13:23:02.542
33.0, -86896.72045668607, -119785.92661451419, 45382.17727925507, 53284.9271041068, 63698.47073536763, 113191.87142752069, 64234.08558775015, 71050.76414951851, 0.02, 0.9560000000000001, 0.05, 192.0, 0.0, 0.0, 0.0, 0.0, 0.0, 0.0, 0.0, 0.0, 0.0, 1.666556582542189E9, 0.0, 2022-10-23 13:23:02.542
34.0, -86936.23834088306, -119822.13644053179, 46944.38540272539, 53446.8654926855, 63836.045722490046, 113880.10399104404, 65235.64490504801, 72104.62654884178, 0.02, 0.9560000000000001, 0.05, 192.0, 0.0, 0.0, 0.0, 0.0, 0.0, 0.0, 0.0, 0.0, 0.0, 1.6665565825421968E9, 0.0, 2022-10-23 13:23:02.542
35.0, -86909.21508183659, -119799.60588212084, 48064.69953831429, 53260.362536950415, 63721.20245947868, 114236.99429476194, 65793.11976350781, 72481.40990512489, 0.02, 0.9560000000000001, 0.05, 192.0, 0.0, 0.0, 0.0, 0.0, 0.0, 0.0, 0.0, 0.0, 0.0, 1.6665565825422049E9, 0.0, 2022-10-23 13:23:02.542
36.0, -86868.57961041685, -119762.09965492484, 45935.71823069075, 53105.80022404197, 63548.15525390569, 113302.11023117427, 64445.577793786266, 71077.58624286488, 0.02, 0.9560000000000001, 0.05, 192.0, 0.0, 0.0, 0.0, 0.0, 0.0, 0.0, 0.0, 0.0, 0.0, 1.6665565825422127E9, 0.0, 2022-10-23 13:23:02.542
37.0, -86897.88274739776, -119789.61465234932, 45273.301932013266, 53263.55883640752, 63664.00434541755, 113108.47706895795, 64144.41038899546, 70941.95585751008, 0.02, 0.9560000000000001, 0.05, 192.0, 0.0, 0.0, 0.0, 0.0, 0.0, 0.0, 0.0, 0.0, 0.0, 1.6665565825422208E9, 0.0, 2022-10-23 13:23:02.542
38.0, -86938.62997753978, -119828.19376327918, 46493.506013572936, 53421.786835406645, 63806.98845469814, 113679.85471246895, 64968.31804136253, 71848.87788878416, 0.02, 0.9560000000000001, 0.05, 192.0, 0.0, 0.0, 0.0, 0.0, 0.0, 0.0, 0.0, 0.0, 0.0, 1.6665565825422285E9, 0.0, 2022-10-23 13:23:02.542
39.0, -86928.32582334589, -119821.59999866487, 48177.91112398042, 53331.08345640701, 63778.89231191782, 114307.53640026289, 65905.16905846227, 72633.2900086987, 0.02, 0.9560000000000001, 0.05, 192.0, 0.0, 0.0, 0.0, 0.0, 0.0, 0.0, 0.0, 0.0, 0.0, 1.6665565825422375E9, 0.0, 2022-10-23 13:23:02.542
40.0, -86873.09466279682, -119770.92859398469, 46311.00402009535, 53093.618523313824, 63552.849120241306, 113458.59479410587, 64685.07673562488, 71295.5828065375, 0.012, 0.9540000000000001, 0.054, 192.0, 0.0, 96.0, 29.0, 208.0, 1.0, 176.0, 0.0, 0.0, 0.0, 1.6665565825422454E9, 0.0, 2022-10-23 13:23:02.542
41.0, -86893.94884037362, -119788.94410001567, 45275.313589014244, 53247.46558039971, 63649.095731865855, 113101.43626945451, 64140.25296452677, 70903.89083670269, 0.012, 0.9540000000000001, 0.054, 192.0, 0.0, 0.0, 0.0, 0.0, 0.0, 0.0, 0.0, 0.0, 0.0, 1.6665565825422535E9, 0.0, 2022-10-23 13:23:02.542
42.0, -86926.76120123401, -119820.23654225309, 46133.57587260913, 53394.584762404535, 63787.028346899555, 113533.54019326452, 64755.127102747814, 71626.76860413178, 0.012, 0.9540000000000001, 0.054, 192.0, 0.0, 0.0, 0.0, 0.0, 0.0, 0.0, 0.0, 0.0, 0.0, 1.6665565825422614E9, 0.0, 2022-10-23 13:23:02.542
43.0, -86933.53377980397, -119828.61844642383, 48142.21538808529, 53386.627541378446, 63812.73285302316, 114318.51110679045, 65914.53443938904, 72679.42400925446, 0.012, 0.9540000000000001, 0.054, 192.0, 0.0, 0.0, 0.0, 0.0, 0.0, 0.0, 0.0, 0.0, 0.0, 1.6665565825422776E9, 0.0, 2022-10-23 13:23:02.542
44.0, -86867.55143017191, -119766.45824509363, 46727.01468789753, 53095.31725589243, 63563.667364557674, 113626.7246158987, 64937.09265435847, 71540.15559436746, 0.012, 0.9540000000000001, 0.054, 192.0, 0.0, 0.0, 0.0, 0.0, 0.0, 0.0, 0.0, 0.0, 0.0, 1.6665565825422857E9, 0.0, 2022-10-23 13:23:02.542
45.0, -86877.98969483253, -119775.66716380921, 45307.05306614078, 53226.90197550082, 63634.16476656971, 113098.28467348633, 64142.42108373894, 70872.66544969863, 0.012, 0.9540000000000001, 0.054, 192.0, 0.0, 0.0, 0.0, 0.0, 0.0, 0.0, 0.0, 0.0, 0.0, 1.6665565825422933E9, 0.0, 2022-10-23 13:23:02.542
46.0, -86910.66794522619, -119806.51257115754, 45841.729145256184, 53368.92495976984, 63772.16443683678, 113414.00306391754, 64578.03423142841, 71432.33077911506, 0.012, 0.9540000000000001, 0.054, 192.0, 0.0, 0.0, 0.0, 0.0, 0.0, 0.0, 0.0, 0.0, 0.0, 1.6665565825423012E9, 0.0, 2022-10-23 13:23:02.542
47.0, -86928.772858235, -119824.72924288861, 47948.82809505798, 53440.29407981564, 63852.0719232645, 114263.05642879683, 65829.17312731424, 72624.8857527835, 0.012, 0.9540000000000001, 0.054, 192.0, 0.0, 0.0, 0.0, 0.0, 0.0, 0.0, 0.0, 0.0, 0.0, 1.6665565825423088E9, 0.0, 2022-10-23 13:23:02.542
48.0, -86874.27930525295, -119774.92955624218, 47173.11080373655, 53126.833215574414, 63611.25422850302, 113820.46953683729, 65221.563306041164, 71825.60972280618, 0.012, 0.9540000000000001, 0.054, 192.0, 0.0, 0.0, 0.0, 0.0, 0.0, 0.0, 0.0, 0.0, 0.0, 1.6665565825423167E9, 0.0, 2022-10-23 13:23:02.542
49.0, -86874.77104363097, -119770.1686346732, 45400.885689364164, 53197.88941119784, 63607.54383892344, 113119.94351386352, 64183.99532842581, 70877.06874335631, 0.012, 0.9540000000000001, 0.054, 192.0, 0.0, 0.0, 0.0, 0.0, 0.0, 0.0, 0.0, 0.0, 0.0, 1.6665565825423243E9, 0.0, 2022-10-23 13:23:02.542
50.0, -86915.18299760617, -119808.36776594732, 45607.90754650922, 53335.75497099817, 63736.558107919474, 113294.68945201511, 64422.04140687483, 71259.46238749771, 0.012, 0.96, 0.056, 192.0, 0.0, 96.0, 30.0, 0.0, 1.0, 192.0, 0.0, 0.0, 0.0, 1.666556582542332E9, 0.0, 2022-10-23 13:23:02.542
51.0, -86945.55901832093, -119837.7379581616, 47643.45856230958, 53456.83437071257, 63852.13897849787, 114149.62132568614, 65668.75465735848, 72490.68587907385, 0.012, 0.96, 0.056, 192.0, 0.0, 0.0, 0.0, 0.0, 0.0, 0.0, 0.0, 0.0, 0.0, 1.6665565825423403E9, 0.0, 2022-10-23 13:23:02.542
52.0, -86894.75350317401, -119790.21814944962, 47603.9853816015, 53167.13341082733, 63640.132682339274, 114007.77715537277, 65502.97176873348, 72118.6187408708, 0.012, 0.96, 0.056, 192.0, 0.0, 0.0, 0.0, 0.0, 0.0, 0.0, 0.0, 0.0, 0.0, 1.666556582542348E9, 0.0, 2022-10-23 13:23:02.542
53.0, -86875.57570643137, -119768.2240329056, 45562.98054015405, 53164.98764335962, 63581.079373488355, 113173.967680212, 64270.608338190126, 70924.87912474622, 0.012, 0.96, 0.056, 192.0, 0.0, 0.0, 0.0, 0.0, 0.0, 0.0, 0.0, 0.0, 0.0, 1.6665565825423555E9, 0.0, 2022-10-23 13:23:02.542
54.0, -86902.64366896673, -119791.84982679485, 45450.014823676924, 53309.64813347437, 63708.46196513915, 113215.40781443212, 64307.846344452664, 71122.87087713134, 0.012, 0.96, 0.056, 192.0, 0.0, 0.0, 0.0, 0.0, 0.0, 0.0, 0.0, 0.0, 0.0, 1.6665565825423636E9, 0.0, 2022-10-23 13:23:02.542
55.0, -86939.30052987344, -119827.99259757908, 47220.60826070407, 53463.942225449355, 63845.92519353929, 113977.82581780266, 65419.84563110419, 72263.59215540793, 0.012, 0.96, 0.056, 192.0, 0.0, 0.0, 0.0, 0.0, 0.0, 0.0, 0.0, 0.0, 0.0, 1.6665565825423713E9, 0.0, 2022-10-23 13:23:02.542
56.0, -86901.54843348842, -119796.45428615264, 47904.14695789182, 53221.00111496462, 63678.71179326914, 114137.2384592579, 65697.00726235, 72345.86892674792, 0.012, 0.96, 0.056, 192.0, 0.0, 0.0, 0.0, 0.0, 0.0, 0.0, 0.0, 0.0, 0.0, 1.666556582542379E9, 0.0, 2022-10-23 13:23:02.542
57.0, -86872.04413080742, -119767.50877708301, 45769.86828683237, 53126.9896777856, 63552.02210569646, 113237.40193097615, 64379.48368543192, 71007.24530306403, 0.012, 0.96, 0.056, 192.0, 0.0, 0.0, 0.0, 0.0, 0.0, 0.0, 0.0, 0.0, 0.0, 1.6665565825423865E9, 0.0, 2022-10-23 13:23:02.542
58.0, -86896.34047703035, -119788.85469303784, 45355.17637195306, 53283.00485408364, 63677.30363336845, 113160.26606086089, 64237.84068081864, 71025.48432653956, 0.012, 0.96, 0.056, 192.0, 0.0, 0.0, 0.0, 0.0, 0.0, 0.0, 0.0, 0.0, 0.0, 1.6665565825424163E9, 0.0, 2022-10-23 13:23:02.542
59.0, -86931.1197914028, -119822.3823097208, 46807.50331968109, 53445.50203627373, 63829.7648822981, 113818.88256298096, 65186.60517771306, 72035.35849277479, 0.02, 0.9560000000000001, 0.054, 192.0, 0.0, 160.0, 29.0, 224.0, 1.0, 176.0, 0.0, 0.0, 0.0, 1.666556582542425E9, 0.0, 2022-10-23 13:23:02.542
60.0, -86910.95851790412, -119806.04318452397, 48157.07929814808, 53290.33622626498, 63747.37635223584, 114284.4246964961, 65894.03788972354, 72567.15119685546, 0.02, 0.9560000000000001, 0.054, 192.0, 0.0, 0.0, 0.0, 0.0, 0.0, 0.0, 0.0, 0.0, 0.0, 1.666556582542434E9, 0.0, 2022-10-23 13:23:02.542
61.0, -86863.19284000312, -119760.44562583514, 46105.07739842861, 53106.53783160899, 63556.8500824988, 113374.0604965759, 64579.28592911791, 71174.03402018953, 0.02, 0.9560000000000001, 0.054, 192.0, 0.0, 0.0, 0.0, 0.0, 0.0, 0.0, 0.0, 0.0, 0.0, 1.666556582542442E9, 0.0, 2022-10-23 13:23:02.542
62.0, -86889.8584711383, -119782.30563191243, 45312.21631910996, 53264.855237585936, 63664.65254600675, 113122.22339179796, 64189.71737500637, 70945.50978487846, 0.02, 0.9560000000000001, 0.054, 192.0, 0.0, 0.0, 0.0, 0.0, 0.0, 0.0, 0.0, 0.0, 0.0, 1.6665565825424497E9, 0.0, 2022-10-23 13:23:02.542
63.0, -86931.87975071427, -119820.34830097537, 46392.29731467931, 53419.9092888724, 63806.09438491993, 113636.8723078814, 64930.78946242207, 71778.40283851657, 0.02, 0.9560000000000001, 0.054, 192.0, 0.0, 0.0, 0.0, 0.0, 0.0, 0.0, 0.0, 0.0, 0.0, 1.6665565825424576E9, 0.0, 2022-10-23 13:23:02.542
64.0, -86938.02648043948, -119827.05382431197, 48188.28233340768, 53347.44493334829, 63777.797076439514, 114304.11658336123, 65933.84634659844, 72648.22097399486, 0.02, 0.9560000000000001, 0.054, 192.0, 0.0, 0.0, 0.0, 0.0, 0.0, 0.0, 0.0, 0.0, 0.0, 1.6665565825424657E9, 0.0, 2022-10-23 13:23:02.542
65.0, -86877.43090122115, -119770.50391084004, 46445.248597293925, 53093.79733726947, 63543.953125948094, 113487.49559968658, 64771.30976573346, 71354.9937432997, 0.02, 0.9560000000000001, 0.054, 192.0, 0.0, 0.0, 0.0, 0.0, 0.0, 0.0, 0.0, 0.0, 0.0, 1.6665565825424733E9, 0.0, 2022-10-23 13:23:02.542
66.0, -86898.64270670923, -119789.07821048239, 45259.801478362264, 53240.73770531866, 63632.8683653913, 113060.35376314567, 64127.02073180923, 70861.08724607078, 0.02, 0.9560000000000001, 0.054, 192.0, 0.0, 0.0, 0.0, 0.0, 0.0, 0.0, 0.0, 0.0, 0.0, 1.6665565825424812E9, 0.0, 2022-10-23 13:23:02.542
67.0, -86933.35496584832, -119821.73410913159, 46005.72389432477, 53386.71694835627, 63775.0031083826, 113456.784302805, 64683.959148402115, 71535.70759722085, 0.02, 0.9560000000000001, 0.054, 192.0, 0.0, 0.0, 0.0, 0.0, 0.0, 0.0, 0.0, 0.0, 0.0, 1.6665565825424893E9, 0.0, 2022-10-23 13:23:02.542
68.0, -86940.50752407403, -119833.15585054825, 48088.32533220355, 53406.43118696585, 63817.44907110323, 114288.20214130904, 65904.18558170625, 72664.8059683807, 0.02, 0.9560000000000001, 0.054, 192.0, 0.0, 0.0, 0.0, 0.0, 0.0, 0.0, 0.0, 0.0, 0.0, 1.666556582542497E9, 0.0, 2022-10-23 13:23:02.542
69.0, -86876.89445935423, -119775.44364636466, 46883.3651403624, 53100.59226758388, 63562.39331512372, 113675.27260485562, 65044.91746961087, 71629.58492393314, 0.02, 0.9560000000000001, 0.054, 192.0, 0.0, 160.0, 29.0, 224.0, 1.0, 176.0, 0.0, 0.0, 0.0, 1.6665565825425048E9, 0.0, 2022-10-23 13:23:02.542
70.0, -86882.21417453459, -119778.14820744375, 45327.616671039665, 53215.79315850654, 63607.00739705651, 113078.36926917665, 64155.00511586727, 70855.11933030121, 0.02, 0.9560000000000001, 0.054, 192.0, 0.0, 0.0, 0.0, 0.0, 0.0, 0.0, 0.0, 0.0, 0.0, 1.666556582542513E9, 0.0, 2022-10-23 13:23:02.542
71.0, -86913.70778247212, -119805.59614963486, 45721.18618740871, 53359.4478201208, 63741.67665739974, 113326.29481867491, 64498.10439325624, 71338.18523146931, 0.02, 0.9560000000000001, 0.054, 192.0, 0.0, 0.0, 0.0, 0.0, 0.0, 0.0, 0.0, 0.0, 0.0, 1.6665565825425208E9, 0.0, 2022-10-23 13:23:02.542
72.0, -86944.30732063143, -119834.13932730429, 47854.36962298985, 53453.77218172219, 63849.23325171867, 114212.8097072613, 65788.6270628723, 72582.12686564052, 0.02, 0.9560000000000001, 0.054, 192.0, 0.0, 0.0, 0.0, 0.0, 0.0, 0.0, 0.0, 0.0, 0.0, 1.6665565825425286E9, 0.0, 2022-10-23 13:23:02.542
73.0, -86888.33855251534, -119782.5738528459, 47340.83829412917, 53139.59606165839, 63602.67115863218, 113871.8785490845, 65334.55137426274, 71926.08081413279, 0.02, 0.9560000000000001, 0.054, 192.0, 0.0, 0.0, 0.0, 0.0, 0.0, 0.0, 0.0, 0.0, 0.0, 1.6665565825425365E9, 0.0, 2022-10-23 13:23:02.542
74.0, -86883.8011483909, -119774.48252135307, 45445.23155036349, 53185.707710469695, 63582.57694036686, 113104.699624145, 64205.631817058544, 70871.7713799204, 0.02, 0.9560000000000001, 0.054, 192.0, 0.0, 0.0, 0.0, 0.0, 0.0, 0.0, 0.0, 0.0, 0.0, 1.666556582542552E9, 0.0, 2022-10-23 13:23:02.542
75.0, -86912.05375338242, -119797.14719023075, 45531.889263616715, 53330.345848839985, 63715.94979953168, 113226.53898317087, 64364.82094106924, 71186.39453487331, 0.02, 0.9560000000000001, 0.054, 192.0, 0.0, 0.0, 0.0, 0.0, 0.0, 0.0, 0.0, 0.0, 0.0, 1.6665565825425687E9, 0.0, 2022-10-23 13:23:02.542
76.0, -86946.25192239904, -119831.21124878064, 47468.98084509145, 53475.94511222185, 63847.19924297324, 114039.58368773267, 65553.12908329119, 72390.32654646951, 0.02, 0.9560000000000001, 0.054, 192.0, 0.0, 0.0, 0.0, 0.0, 0.0, 0.0, 0.0, 0.0, 0.0, 1.666556582542577E9, 0.0, 2022-10-23 13:23:02.542
77.0, -86911.60671849332, -119803.15980948924, 47720.907356847216, 53192.077957639456, 63654.57190925741, 114031.9170393845, 65572.64215620067, 72205.43291633522, 0.02, 0.9560000000000001, 0.054, 192.0, 0.0, 0.0, 0.0, 0.0, 0.0, 0.0, 0.0, 0.0, 0.0, 1.666556582542585E9, 0.0, 2022-10-23 13:23:02.542
78.0, -86885.83515713635, -119778.50583535503, 45635.19902648914, 53148.8943873518, 63560.35930637828, 113171.10665692171, 64304.27006533981, 70947.5437936239, 0.02, 0.9560000000000001, 0.054, 192.0, 0.0, 0.0, 0.0, 0.0, 0.0, 0.0, 0.0, 0.0, 0.0, 1.6665565825425928E9, 0.0, 2022-10-23 13:23:02.542
79.0, -86913.73013421657, -119806.26670196852, 45412.17332031409, 53299.992179869674, 63684.45619159415, 113163.59647078473, 64274.43048649198, 71077.40742890924, 0.024, 0.9540000000000001, 0.052000000000000005, 192.0, 0.0, 192.0, 29.0, 208.0, 1.0, 160.0, 0.0, 0.0, 0.0, 1.6665565825426009E9, 0.0, 2022-10-23 13:23:02.542
80.0, -86948.77766952249, -119839.39198725129, 47080.21695378029, 53464.232798127276, 63833.29645792204, 113897.85127614156, 65337.904135931036, 72184.01994514704, 0.024, 0.9540000000000001, 0.052000000000000005, 192.0, 0.0, 0.0, 0.0, 0.0, 0.0, 0.0, 0.0, 0.0, 0.0, 1.6665565825426092E9, 0.0, 2022-10-23 13:23:02.542
81.0, -86919.9662709196, -119817.80020210746, 48041.52077931414, 53251.421839168295, 63703.32106391443, 114196.44823032, 65799.46765893312, 72451.61502976598, 0.024, 0.9540000000000001, 0.052000000000000005, 192.0, 0.0, 0.0, 0.0, 0.0, 0.0, 0.0, 0.0, 0.0, 0.0, 1.666556582542617E9, 0.0, 2022-10-23 13:23:02.542
82.0, -86874.21225001958, -119772.13558818527, 45883.23633470969, 53122.56403238345, 63536.59940202229, 113257.96553587503, 64438.62640126067, 71050.80885300742, 0.024, 0.9540000000000001, 0.052000000000000005, 192.0, 0.0, 0.0, 0.0, 0.0, 0.0, 0.0, 0.0, 0.0, 0.0, 1.666556582542626E9, 0.0, 2022-10-23 13:23:02.542
83.0, -86905.39293353473, -119794.7779053185, 45330.74591526341, 53286.98346459669, 63667.46886580812, 113115.42846148353, 64205.27418914726, 70984.02184057496, 0.024, 0.9540000000000001, 0.052000000000000005, 192.0, 0.0, 0.0, 0.0, 0.0, 0.0, 0.0, 0.0, 0.0, 0.0, 1.6665565825426352E9, 0.0, 2022-10-23 13:23:02.542
84.0, -86949.38116662278, -119835.72630116061, 46637.04891646492, 53443.49037927275, 63805.71440526419, 113710.43189888382, 65068.8561879225, 71924.47148853201, 0.024, 0.9540000000000001, 0.052000000000000005, 192.0, 0.0, 0.0, 0.0, 0.0, 0.0, 0.0, 0.0, 0.0, 0.0, 1.666556582542643E9, 0.0, 2022-10-23 13:23:02.542
85.0, -86936.97594845008, -119827.36674873433, 48171.78674599967, 53322.94742142528, 63750.259727270575, 114264.24107125295, 65901.2575031826, 72594.97911870231, 0.024, 0.9540000000000001, 0.052000000000000005, 192.0, 0.0, 0.0, 0.0, 0.0, 0.0, 0.0, 0.0, 0.0, 0.0, 1.6665565825426507E9, 0.0, 2022-10-23 13:23:02.542
86.0, -86881.70008441212, -119768.62636430579, 46203.13450135404, 53109.86824153284, 63540.28743985742, 113378.41908674469, 64625.9563715406, 71220.8609248234, 0.024, 0.9540000000000001, 0.052000000000000005, 192.0, 0.0, 0.0, 0.0, 0.0, 0.0, 0.0, 0.0, 0.0, 0.0, 1.6665565825426593E9, 0.0, 2022-10-23 13:23:02.542
87.0, -86898.37448577577, -119777.70117255465, 45269.39037673359, 53252.897054302346, 63632.82366190239, 113063.17008294704, 64144.45509248437, 70898.32525233332, 0.024, 0.9540000000000001, 0.052000000000000005, 192.0, 0.0, 0.0, 0.0, 0.0, 0.0, 0.0, 0.0, 0.0, 0.0, 1.6665565825426672E9, 0.0, 2022-10-23 13:23:02.542
88.0, -86926.62709076729, -119806.3784606908, 46224.59217603114, 53401.24558225222, 63771.89621590331, 113533.65195198679, 64814.761556954574, 71670.64507849755, 0.024, 0.9540000000000001, 0.052000000000000005, 192.0, 0.0, 0.0, 0.0, 0.0, 0.0, 0.0, 0.0, 0.0, 0.0, 1.6665565825426748E9, 0.0, 2022-10-23 13:23:02.542
89.0, -86930.09161115786, -119822.58347542089, 48185.35425488404, 53384.61588437747, 63794.940864436736, 114304.40715603915, 65945.26808801509, 72679.155788321, 0.028, 0.9520000000000001, 0.05, 192.0, 0.0, 224.0, 29.0, 192.0, 1.0, 144.0, 0.0, 0.0, 0.0, 1.6665565825426915E9, 0.0, 2022-10-23 13:23:02.542
90.0, -86871.30652324039, -119772.11323644081, 46587.15982284067, 53113.913907279246, 63548.781102750436, 113527.81814668396, 64853.54183358453, 71446.92646824438, 0.028, 0.9520000000000001, 0.05, 192.0, 0.0, 0.0, 0.0, 0.0, 0.0, 0.0, 0.0, 0.0, 0.0, 1.6665565825426996E9, 0.0, 2022-10-23 13:23:02.542
91.0, -86890.21609904959, -119792.63213785079, 45272.83254537971, 53246.191530965756, 63622.69832166414, 113041.55594605875, 64125.56786841964, 70857.62272568021, 0.028, 0.9520000000000001, 0.05, 192.0, 0.0, 0.0, 0.0, 0.0, 0.0, 0.0, 0.0, 0.0, 0.0, 1.6665565825427074E9, 0.0, 2022-10-23 13:23:02.542
92.0, -86928.19171287915, -119828.6855016572, 45885.560916133036, 53387.76748034567, 63750.01385808157, 113378.97788035606, 64601.816487528864, 71456.64947708244, 0.028, 0.9520000000000001, 0.05, 192.0, 0.0, 0.0, 0.0, 0.0, 0.0, 0.0, 0.0, 0.0, 0.0, 1.6665565825427153E9, 0.0, 2022-10-23 13:23:02.542
93.0, -86940.82044849641, -119845.04697859848, 48027.05920065155, 53442.43984728335, 63824.512222351106, 114254.18278624807, 65879.06222093847, 72653.83126185313, 0.028, 0.9520000000000001, 0.05, 192.0, 0.0, 0.0, 0.0, 0.0, 0.0, 0.0, 0.0, 0.0, 0.0, 1.6665565825427227E9, 0.0, 2022-10-23 13:23:02.542
94.0, -86876.82740412086, -119791.55925411693, 47055.898255812914, 53130.52125340954, 63569.679983816146, 113736.42697768533, 65158.06200004363, 71741.5895153987, 0.028, 0.9520000000000001, 0.05, 192.0, 0.0, 0.0, 0.0, 0.0, 0.0, 0.0, 0.0, 0.0, 0.0, 1.6665565825427306E9, 0.0, 2022-10-23 13:23:02.542
95.0, -86885.4104739917, -119798.73416408709, 45384.90419207862, 53218.855347496916, 63598.04434752993, 113088.47225767044, 64190.87966571804, 70872.93367063209, 0.028, 0.9520000000000001, 0.05, 192.0, 0.0, 0.0, 0.0, 0.0, 0.0, 0.0, 0.0, 0.0, 0.0, 1.6665565825427384E9, 0.0, 2022-10-23 13:23:02.542
96.0, -86916.52410227348, -119826.40562372275, 45676.102718842354, 53354.37397412944, 63720.4425001672, 113293.86243747026, 64473.897454011145, 71296.00748968215, 0.028, 0.9520000000000001, 0.05, 192.0, 0.0, 0.0, 0.0, 0.0, 0.0, 0.0, 0.0, 0.0, 0.0, 1.6665565825427463E9, 0.0, 2022-10-23 13:23:02.542
97.0, -86944.50848633153, -119854.88174615882, 47755.59726424185, 53467.76437375121, 63829.608420086915, 114158.58437521273, 65736.99453318055, 72532.1707167829, 0.028, 0.9520000000000001, 0.05, 192.0, 0.0, 0.0, 0.0, 0.0, 0.0, 0.0, 0.0, 0.0, 0.0, 1.666556582542754E9, 0.0, 2022-10-23 13:23:02.542
98.0, -86891.78072116146, -119812.72635611611, 47489.96913313498, 53155.488151966114, 63589.751850337016, 113917.85608742907, 65427.601686430186, 72019.28758851142, 0.024, 0.9540000000000001, 0.052000000000000005, 192.0, 0.0, 192.0, 29.0, 208.0, 1.0, 160.0, 0.0, 0.0, 0.0, 1.6665565825427616E9, 0.0, 2022-10-23 13:23:02.542
99.0, -86880.69425591163, -119804.277396712, 45475.696978056076, 53170.01678586207, 63540.890936957716, 113080.22446396643, 64205.788279269735, 70859.45556872553, 0.024, 0.9540000000000001, 0.052000000000000005, 192.0, 0.0, 0.0, 0.0, 0.0, 0.0, 0.0, 0.0, 0.0, 0.0, 1.66655658254277E9, 0.0, 2022-10-23 13:23:02.542
100.0, -86908.67863996967, -119835.45808022715, 45459.871942981714, 53307.52471775111, 63674.44261007817, 113159.7072672495, 64304.851210695655, 71118.44523172919, 0.024, 0.9540000000000001, 0.052000000000000005, 192.0, 0.0, 0.0, 0.0, 0.0, 0.0, 0.0, 0.0, 0.0, 0.0, 1.6665565825427775E9, 0.0, 2022-10-23 13:23:02.542
101.0, -86952.08572770188, -119882.03911567201, 47346.98502385438, 53450.48647528726, 63812.44228034524, 113978.31755618067, 65488.063155181786, 72316.74460372265, 0.024, 0.9540000000000001, 0.052000000000000005, 192.0, 0.0, 0.0, 0.0, 0.0, 0.0, 0.0, 0.0, 0.0, 0.0, 1.6665565825427854E9, 0.0, 2022-10-23 13:23:02.542
102.0, -86904.23064282307, -119841.64951344127, 47824.8876720533, 53195.29660884102, 63625.49228972105, 114050.75955996032, 65635.40585463117, 72261.17816700676, 0.024, 0.9540000000000001, 0.052000000000000005, 192.0, 0.0, 0.0, 0.0, 0.0, 0.0, 0.0, 0.0, 0.0, 0.0, 1.6665565825427933E9, 0.0, 2022-10-23 13:23:02.542
103.0, -86870.92654358466, -119810.31236771493, 45669.687768183685, 53138.880805835826, 63528.70923622957, 113138.89779316161, 64302.90660892804, 70932.81399402786, 0.024, 0.9540000000000001, 0.052000000000000005, 192.0, 0.0, 0.0, 0.0, 0.0, 0.0, 0.0, 0.0, 0.0, 0.0, 1.6665565825428023E9, 0.0, 2022-10-23 13:23:02.542
104.0, -86901.92841314417, -119840.46487098515, 45348.314386405276, 53291.31970302102, 63661.70211573865, 113098.99992930889, 64215.488936363334, 71009.83810542084, 0.024, 0.9540000000000001, 0.052000000000000005, 192.0, 0.0, 0.0, 0.0, 0.0, 0.0, 0.0, 0.0, 0.0, 0.0, 1.6665565825428102E9, 0.0, 2022-10-23 13:23:02.542
105.0, -86945.69312878767, -119882.03911567201, 46899.79367253705, 53459.94126319185, 63809.49185007714, 113792.17222835687, 65216.109480394065, 72069.44490306913, 0.024, 0.9540000000000001, 0.052000000000000005, 192.0, 0.0, 0.0, 0.0, 0.0, 0.0, 0.0, 0.0, 0.0, 0.0, 1.6665565825428264E9, 0.0, 2022-10-23 13:23:02.542
106.0, -86919.47453254159, -119859.37444679433, 48072.45559364028, 53273.84063885697, 63695.90028475527, 114178.03039288885, 65810.12944103831, 72482.16986443638, 0.024, 0.9540000000000001, 0.052000000000000005, 192.0, 0.0, 0.0, 0.0, 0.0, 0.0, 0.0, 0.0, 0.0, 0.0, 1.6665565825428343E9, 0.0, 2022-10-23 13:23:02.542
107.0, -86874.56987793087, -119816.39204220677, 45964.03789091562, 53117.57959336992, 63524.82003269435, 113254.45631199556, 64472.2657766659, 71083.93413829019, 0.024, 0.9540000000000001, 0.052000000000000005, 192.0, 0.0, 0.0, 0.0, 0.0, 0.0, 0.0, 0.0, 0.0, 0.0, 1.666556582542842E9, 0.0, 2022-10-23 13:23:02.542
108.0, -86894.44057875164, -119831.032434825, 45326.230862883436, 53284.16714479532, 63655.600089502346, 113093.56845540625, 64196.28878787623, 70965.02285778796, 0.02, 0.9560000000000001, 0.054, 192.0, 0.0, 160.0, 29.0, 224.0, 1.0, 176.0, 0.0, 0.0, 0.0, 1.6665565825428498E9, 0.0, 2022-10-23 13:23:02.542
109.0, -86937.95942520612, -119871.55614752248, 46488.56627804831, 53436.49428325824, 63779.09347761792, 113627.21635427671, 64971.782561753105, 71828.89542924112, 0.02, 0.9560000000000001, 0.054, 192.0, 0.0, 0.0, 0.0, 0.0, 0.0, 0.0, 0.0, 0.0, 0.0, 1.666556582542858E9, 0.0, 2022-10-23 13:23:02.542
110.0, -86937.93707346167, -119876.11590339136, 48207.035447005685, 53341.119389667445, 63744.33651498992, 114273.20412077954, 65928.79485235154, 72634.13937498801, 0.02, 0.9560000000000001, 0.054, 192.0, 0.0, 0.0, 0.0, 0.0, 0.0, 0.0, 0.0, 0.0, 0.0, 1.666556582542866E9, 0.0, 2022-10-23 13:23:02.542
111.0, -86879.80018613342, -119820.41535620873, 46362.30127362029, 53103.1850699407, 63517.51101225746, 113427.28000012398, 64716.7268057736, 71300.90252171786, 0.02, 0.9560000000000001, 0.054, 192.0, 0.0, 0.0, 0.0, 0.0, 0.0, 0.0, 0.0, 0.0, 0.0, 1.666556582542874E9, 0.0, 2022-10-23 13:23:02.542
112.0, -86897.18984331965, -119834.69812091568, 45319.68180175803, 53255.2216357257, 63621.31251350791, 113075.32943193072, 64174.13820912102, 70901.58860702379, 0.02, 0.9560000000000001, 0.054, 192.0, 0.0, 0.0, 0.0, 0.0, 0.0, 0.0, 0.0, 0.0, 0.0, 1.6665565825428817E9, 0.0, 2022-10-23 13:23:02.542
113.0, -86939.21112289562, -119877.18878712521, 46142.60597736907, 53396.77523336116, 63746.683448157724, 113488.1438002758, 64765.31949821943, 71598.40424041799, 0.02, 0.9560000000000001, 0.054, 192.0, 0.0, 0.0, 0.0, 0.0, 0.0, 0.0, 0.0, 0.0, 0.0, 1.66655658254289E9, 0.0, 2022-10-23 13:23:02.542
114.0, -86945.80488750993, -119886.3977058408, 48169.28335062067, 53398.40691070639, 63782.02155614157, 114284.55880696283, 65938.02612281157, 72665.58827943663, 0.02, 0.9560000000000001, 0.054, 192.0, 0.0, 0.0, 0.0, 0.0, 0.0, 0.0, 0.0, 0.0, 0.0, 1.666556582542898E9, 0.0, 2022-10-23 13:23:02.542
115.0, -86879.42020647768, -119824.72924288861, 46807.458616192176, 53106.02374148652, 63538.499300300995, 113616.73338612716, 64993.01671898565, 71551.30911485066, 0.02, 0.9560000000000001, 0.054, 192.0, 0.0, 0.0, 0.0, 0.0, 0.0, 0.0, 0.0, 0.0, 0.0, 1.6665565825429056E9, 0.0, 2022-10-23 13:23:02.542
116.0, -86886.41630249219, -119827.2326382676, 45386.55822116831, 53236.44617038324, 63600.95007430913, 113091.60150189418, 64198.41220359948, 70875.25825205544, 0.02, 0.9560000000000001, 0.054, 192.0, 0.0, 0.0, 0.0, 0.0, 0.0, 0.0, 0.0, 0.0, 0.0, 1.6665565825429137E9, 0.0, 2022-10-23 13:23:02.542
117.0, -86920.52506453099, -119855.97698163713, 45850.334566871476, 53366.622730090945, 63711.36769191834, 113352.13343526525, 64573.20625462607, 71383.82749364704, 0.02, 0.9560000000000001, 0.054, 192.0, 0.0, 0.0, 0.0, 0.0, 0.0, 0.0, 0.0, 0.0, 0.0, 1.6665565825429215E9, 0.0, 2022-10-23 13:23:02.542
1.0, -87041.02331888954, -119983.94071864376, 46086.45839529734, 53362.97939574473, 63001.56569499561, 112852.57194668913, 64728.79674777947, 70695.72904059042, 0.02, 0.9560000000000001, 0.054, 192.0, 0.0, 0.0, 0.0, 0.0, 0.0, 0.0, 0.0, 0.0, 0.0, 1.66655658312073E9, 0.0, 2022-10-23 13:23:03.120
2.0, -87047.39356605931, -119994.46839028221, 45538.77360090895, 53517.40759818645, 63111.223353293346, 112707.41971819637, 64491.8235530643, 70628.58440024668, 0.02, 0.9560000000000001, 0.054, 192.0, 0.0, 0.0, 0.0, 0.0, 0.0, 0.0, 0.0, 0.0, 0.0, 1.666556583120819E9, 0.0, 2022-10-23 13:23:03.120
3.0, -87099.58488936245, -120045.72094031824, 46782.26820019105, 53660.23524525586, 63215.82951734418, 113266.59330923478, 65315.28417054226, 71529.80673668465, 0.02, 0.9560000000000001, 0.054, 192.0, 0.0, 0.0, 0.0, 0.0, 0.0, 0.0, 0.0, 0.0, 0.0, 1.6665565831209254E9, 0.0, 2022-10-23 13:23:03.120
4.0, -87074.08154893894, -120024.91146623033, 48328.695992075925, 53563.16161908646, 63175.57402558017, 113841.86015628102, 66173.70291634834, 72216.60878856288, 0.02, 0.9560000000000001, 0.054, 192.0, 0.0, 0.0, 0.0, 0.0, 0.0, 0.0, 0.0, 0.0, 0.0, 1.6665565831209342E9, 0.0, 2022-10-23 13:23:03.120
5.0, -87010.55789119696, -119960.73960789914, 46410.89396606612, 53361.61593933296, 62999.86696241701, 112969.85154984612, 64911.723424401695, 70859.85790012573, 0.02, 0.9560000000000001, 0.054, 192.0, 0.0, 0.0, 0.0, 0.0, 0.0, 0.0, 0.0, 0.0, 0.0, 1.6665565831209424E9, 0.0, 2022-10-23 13:23:03.120
6.0, -87032.14967634079, -119978.93392788577, 45493.82424280933, 53502.72250207931, 63094.079565296124, 112658.96113621726, 64436.905316937606, 70552.02967548724, 0.02, 0.9560000000000001, 0.054, 192.0, 0.0, 0.0, 0.0, 0.0, 0.0, 0.0, 0.0, 0.0, 0.0, 1.6665565831209505E9, 0.0, 2022-10-23 13:23:03.120
7.0, -87069.23122039215, -120006.85125671045, 46438.341908257236, 53648.58998639465, 63224.01025581483, 113131.6558279581, 65114.45374661133, 71331.50205987717, 0.04, 0.9540000000000001, 0.074, 192.0, 1.0, 64.0, 29.0, 208.0, 2.0, 80.0, 0.0, 0.0, 0.0, 1.666556583120963E9, 0.0, 2022-10-23 13:23:03.120
8.0, -87074.46152859468, -120018.76473650512, 48374.29355076475, 53623.04194248223, 63224.16671802601, 113890.56460744914, 66241.00401890326, 72322.57840902549, 0.04, 0.9540000000000001, 0.074, 192.0, 0.0, 0.0, 0.0, 0.0, 0.0, 0.0, 0.0, 0.0, 0.0, 1.666556583120972E9, 0.0, 2022-10-23 13:23:03.120
9.0, -87013.0389348315, -119968.1156835694, 46834.48187523864, 53346.774381014635, 62992.289721046654, 113129.1524325791, 65168.09793330407, 71104.38598446679, 0.04, 0.9540000000000001, 0.074, 192.0, 0.0, 0.0, 0.0, 0.0, 0.0, 0.0, 0.0, 0.0, 0.0, 1.6665565831209798E9, 0.0, 2022-10-23 13:23:03.120
10.0, -87034.76483044206, -119985.66180296682, 45508.15171100518, 53479.5213913347, 63065.80460856016, 112623.71243521124, 64414.71003469349, 70501.47002952934, 0.04, 0.9540000000000001, 0.074, 192.0, 0.0, 0.0, 0.0, 0.0, 0.0, 0.0, 0.0, 0.0, 0.0, 1.666556583120988E9, 0.0, 2022-10-23 13:23:03.120
11.0, -87049.36051957138, -119998.15642811733, 46091.733406988795, 53623.48897737134, 63192.04726124374, 112947.52215713527, 64875.737115828655, 71095.04295528447, 0.04, 0.9540000000000001, 0.074, 192.0, 0.0, 0.0, 0.0, 0.0, 0.0, 0.0, 0.0, 0.0, 0.0, 1.666556583120996E9, 0.0, 2022-10-23 13:23:03.120
12.0, -87066.99604594661, -120017.7812597491, 48174.84893499004, 53673.75805065132, 63254.878014907605, 113797.9166266819, 66128.7535582487, 72267.57076592097, 0.04, 0.9540000000000001, 0.074, 192.0, 0.0, 0.0, 0.0, 0.0, 0.0, 0.0, 0.0, 0.0, 0.0, 1.666556583121004E9, 0.0, 2022-10-23 13:23:03.121
13.0, -87003.539443438, -119953.38588397336, 47253.66649075347, 53373.75293657219, 63033.79691050016, 113301.52908581843, 65431.73675915442, 71380.94411861231, 0.04, 0.9540000000000001, 0.074, 192.0, 0.0, 0.0, 0.0, 0.0, 0.0, 0.0, 0.0, 0.0, 0.0, 1.666556583121012E9, 0.0, 2022-10-23 13:23:03.121
14.0, -87015.49762672158, -119962.39363698884, 45594.72001728058, 53454.48743754476, 63066.02812600471, 112654.9378222153, 64456.93247996956, 70518.30089310418, 0.04, 0.9540000000000001, 0.074, 192.0, 0.0, 0.0, 0.0, 0.0, 0.0, 0.0, 0.0, 0.0, 0.0, 1.6665565831210203E9, 0.0, 2022-10-23 13:23:03.121
15.0, -87047.84060094842, -119989.61806173541, 45863.87972401139, 53587.815593220665, 63177.496275603335, 112849.21918502083, 64726.829794267396, 70934.44567137309, 0.04, 0.9540000000000001, 0.074, 192.0, 0.0, 0.0, 0.0, 0.0, 0.0, 0.0, 0.0, 0.0, 0.0, 1.666556583121028E9, 0.0, 2022-10-23 13:23:03.121
16.0, -87070.7511390151, -120016.4848585707, 47931.37138263838, 53715.7793302273, 63290.0373089358, 113733.36478869496, 66012.94917022577, 72175.83920667639, 0.04, 0.9540000000000001, 0.074, 192.0, 0.0, 0.0, 0.0, 0.0, 0.0, 0.0, 0.0, 0.0, 0.0, 1.666556583121036E9, 0.0, 2022-10-23 13:23:03.121
17.0, -87014.24592903208, -119960.44903522123, 47713.50892943251, 53415.95303010381, 63070.92315804043, 113515.47998374463, 65736.05575991342, 71681.68684025847, 0.044, 0.96, 0.076, 192.0, 1.0, 96.0, 30.0, 0.0, 2.0, 96.0, 0.0, 0.0, 0.0, 1.666556583121044E9, 0.0, 2022-10-23 13:23:03.121
18.0, -87009.82028362993, -119953.22942176217, 45721.11913217534, 53434.61673672399, 63041.41885535942, 112682.02813649514, 64514.33175973079, 70528.4485850869, 0.044, 0.96, 0.076, 192.0, 0.0, 0.0, 0.0, 0.0, 0.0, 0.0, 0.0, 0.0, 0.0, 1.6665565831210525E9, 0.0, 2022-10-23 13:23:03.121
19.0, -87031.1885513292, -119971.64725919334, 45693.5370795175, 53584.01579666326, 63168.1085429321, 112759.87926243297, 64606.577409097845, 70787.84057949073, 0.044, 0.96, 0.076, 192.0, 0.0, 0.0, 0.0, 0.0, 0.0, 0.0, 0.0, 0.0, 0.0, 1.666556583121084E9, 0.0, 2022-10-23 13:23:03.121
20.0, -87057.38479583083, -119992.88141642588, 47508.02934265487, 53737.147597926574, 63296.29579738329, 113548.02412367155, 65755.54648107845, 71951.85237548976, 0.044, 0.96, 0.076, 192.0, 0.0, 0.0, 0.0, 0.0, 0.0, 0.0, 0.0, 0.0, 0.0, 1.6665565831210918E9, 0.0, 2022-10-23 13:23:03.121
21.0, -87023.5889582144, -119972.20605280473, 48018.274965080614, 53482.13654543598, 63123.98619937732, 113635.75472065863, 65928.2584104846, 71916.49191576146, 0.044, 0.96, 0.076, 192.0, 0.0, 0.0, 0.0, 0.0, 0.0, 0.0, 0.0, 0.0, 0.0, 1.6665565831210997E9, 0.0, 2022-10-23 13:23:03.121
22.0, -86987.44618743018, -119941.47240417868, 45899.9330878178, 53420.19986155032, 63043.408160615945, 112731.78311965265, 64601.88354276223, 70602.14228655605, 0.044, 0.96, 0.076, 192.0, 0.0, 0.0, 0.0, 0.0, 0.0, 0.0, 0.0, 0.0, 0.0, 1.6665565831211076E9, 0.0, 2022-10-23 13:23:03.121
23.0, -87025.42180125974, -119974.03889585006, 45580.95134269611, 53560.5911684741, 63158.69845851642, 112696.82499132455, 64517.28218999889, 70687.41419165304, 0.044, 0.96, 0.076, 192.0, 0.0, 0.0, 0.0, 0.0, 0.0, 0.0, 0.0, 0.0, 0.0, 1.6665565831211157E9, 0.0, 2022-10-23 13:23:03.121
24.0, -87063.08449066694, -120002.31385258603, 47096.01963711019, 53706.615115000626, 63274.54755002828, 113383.5599879694, 65511.01839673739, 71727.66437860303, 0.044, 0.96, 0.076, 192.0, 0.0, 0.0, 0.0, 0.0, 0.0, 0.0, 0.0, 0.0, 0.0, 1.6665565831211236E9, 0.0, 2022-10-23 13:23:03.121
25.0, -87040.68804272272, -119987.33818380097, 48284.48424154332, 53527.26471749124, 63155.77037999278, 113782.53862649664, 66125.13257564695, 72142.11042429334, 0.044, 0.96, 0.076, 192.0, 0.0, 0.0, 0.0, 0.0, 0.0, 0.0, 0.0, 0.0, 0.0, 1.6665565831211317E9, 0.0, 2022-10-23 13:23:03.121
26.0, -86986.7309316076, -119938.83489833295, 46184.69431217841, 53365.54984635709, 62988.869904144995, 112834.95877205835, 64760.7373906061, 70725.79213688281, 0.044, 0.96, 0.076, 192.0, 0.0, 0.0, 0.0, 0.0, 0.0, 0.0, 0.0, 0.0, 0.0, 1.6665565831211395E9, 0.0, 2022-10-23 13:23:03.121
27.0, -87008.38977198479, -119954.83874736296, 45507.90584181617, 53534.774903628226, 63123.89679239951, 112641.97381043123, 64447.29887810932, 70587.94892882693, 0.036000000000000004, 0.96, 0.084, 192.0, 1.0, 32.0, 30.0, 0.0, 2.0, 160.0, 0.0, 0.0, 0.0, 1.6665565831211476E9, 0.0, 2022-10-23 13:23:03.121
28.0, -87059.23999062061, -120005.30898634304, 46650.05763173791, 53668.080707559675, 63230.91694485152, 113182.6178053162, 65230.28048637873, 71452.49205261374, 0.036000000000000004, 0.96, 0.084, 192.0, 0.0, 0.0, 0.0, 0.0, 0.0, 0.0, 0.0, 0.0, 0.0, 1.6665565831211567E9, 0.0, 2022-10-23 13:23:03.121
29.0, -87044.64430149131, -119997.6199862504, 48370.225533273886, 53589.96136068837, 63202.999616026835, 113839.51322311322, 66208.9739690988, 72269.51536768858, 0.036000000000000004, 0.96, 0.084, 192.0, 0.0, 0.0, 0.0, 0.0, 0.0, 0.0, 0.0, 0.0, 0.0, 1.6665565831211655E9, 0.0, 2022-10-23 13:23:03.121
30.0, -86980.33833269338, -119945.60747690291, 46584.07528210584, 53349.65775604937, 62990.92626463489, 113011.40344278855, 65016.48605066372, 70957.04328501741, 0.036000000000000004, 0.96, 0.084, 192.0, 0.0, 0.0, 0.0, 0.0, 0.0, 0.0, 0.0, 0.0, 0.0, 1.6665565831211731E9, 0.0, 2022-10-23 13:23:03.121
31.0, -87008.05449581797, -119968.83093939198, 45508.66580112765, 53494.564115353125, 63077.67338486593, 112625.85820267895, 64430.57977325676, 70534.23768690081, 0.036000000000000004, 0.96, 0.084, 192.0, 0.0, 0.0, 0.0, 0.0, 0.0, 0.0, 0.0, 0.0, 0.0, 1.666556583121181E9, 0.0, 2022-10-23 13:23:03.121
32.0, -87033.11080135236, -119973.5695092165, 46314.89322363058, 53660.302300489224, 63225.88780234907, 113046.54038507228, 65023.97388505625, 71247.70536991423, 0.036000000000000004, 0.96, 0.084, 192.0, 0.0, 0.0, 0.0, 0.0, 0.0, 0.0, 0.0, 0.0, 0.0, 1.6665565831211889E9, 0.0, 2022-10-23 13:23:03.121
33.0, -87040.06219387797, -119984.99125063316, 48331.89229153303, 53668.28187325977, 63259.79539868777, 113851.80668256363, 66211.0303295887, 72322.26548460311, 0.036000000000000004, 0.96, 0.084, 192.0, 0.0, 0.0, 0.0, 0.0, 0.0, 0.0, 0.0, 0.0, 0.0, 1.6665565831211967E9, 0.0, 2022-10-23 13:23:03.121
34.0, -86996.54334742349, -119956.49277645264, 46998.85660396297, 53363.18056144483, 63013.45682304583, 113176.5157790799, 65262.13172222755, 71203.51597112608, 0.036000000000000004, 0.96, 0.084, 192.0, 0.0, 0.0, 0.0, 0.0, 0.0, 0.0, 0.0, 0.0, 0.0, 1.6665565831212237E9, 0.0, 2022-10-23 13:23:03.121
35.0, -87020.16914131274, -119977.32460228499, 45541.63462419923, 53464.925702205386, 63053.98053574331, 112611.7319001832, 64420.968523140975, 70493.7363259478, 0.036000000000000004, 0.96, 0.084, 192.0, 0.0, 0.0, 0.0, 0.0, 0.0, 0.0, 0.0, 0.0, 0.0, 1.6665565831212318E9, 0.0, 2022-10-23 13:23:03.121
36.0, -87024.25951054806, -119972.04959059354, 46005.54508036913, 53620.51619535878, 63183.866522773096, 112889.47467678484, 64809.86652491886, 71023.02563464947, 0.036000000000000004, 0.96, 0.084, 192.0, 0.0, 0.0, 0.0, 0.0, 0.0, 0.0, 0.0, 0.0, 0.0, 1.6665565831212397E9, 0.0, 2022-10-23 13:23:03.121
37.0, -87027.92519663874, -119978.28572729656, 48110.69942840331, 53715.555812782746, 63278.39205007459, 113769.105228079, 66093.08017409804, 72245.88957379933, 0.042, 0.9500000000000001, 0.082, 192.0, 1.0, 80.0, 29.0, 176.0, 2.0, 144.0, 0.0, 0.0, 0.0, 1.6665565831212473E9, 0.0, 2022-10-23 13:23:03.121
38.0, -86992.92236482172, -119958.72795089817, 47433.374516174146, 53387.678073367846, 63032.567564555124, 113360.13535978024, 65536.23116448298, 71485.90791057443, 0.042, 0.9500000000000001, 0.082, 192.0, 0.0, 0.0, 0.0, 0.0, 0.0, 0.0, 0.0, 0.0, 0.0, 1.666556583121256E9, 0.0, 2022-10-23 13:23:03.121
39.0, -86975.95739078014, -119943.32759896846, 45652.141648786266, 53445.993774651746, 63038.49077683577, 112648.4334645788, 64476.35614590123, 70520.96075069437, 0.042, 0.9500000000000001, 0.082, 192.0, 0.0, 0.0, 0.0, 0.0, 0.0, 0.0, 0.0, 0.0, 0.0, 1.6665565831212637E9, 0.0, 2022-10-23 13:23:03.121
40.0, -87001.17015852573, -119961.90189861083, 45790.65540917581, 53589.96136068837, 63156.507987559795, 112785.53906506767, 64662.568528958385, 70867.36808626272, 0.042, 0.9500000000000001, 0.082, 192.0, 0.0, 0.0, 0.0, 0.0, 0.0, 0.0, 0.0, 0.0, 0.0, 1.6665565831212716E9, 0.0, 2022-10-23 13:23:03.121
41.0, -87058.9941214316, -120013.31091085804, 47763.398023056754, 53707.75505396784, 63260.15302659906, 113623.79653737505, 65888.0476222095, 72075.74809500553, 0.042, 0.9500000000000001, 0.082, 192.0, 0.0, 0.0, 0.0, 0.0, 0.0, 0.0, 0.0, 0.0, 0.0, 1.6665565831212797E9, 0.0, 2022-10-23 13:23:03.121
42.0, -87003.07005680443, -119969.38973300335, 47846.97119557515, 53430.41460876639, 63073.56066388616, 113544.51489979208, 65804.85442934686, 71774.64774544809, 0.042, 0.9500000000000001, 0.082, 192.0, 0.0, 0.0, 0.0, 0.0, 0.0, 0.0, 0.0, 0.0, 0.0, 1.6665565831212876E9, 0.0, 2022-10-23 13:23:03.121
43.0, -86985.9262688072, -119949.20610776021, 45809.810854174, 53414.05313182511, 63018.48596554828, 112694.72392734575, 64552.30737356036, 70565.28425994924, 0.042, 0.9500000000000001, 0.082, 192.0, 0.0, 0.0, 0.0, 0.0, 0.0, 0.0, 0.0, 0.0, 0.0, 1.6665565831212957E9, 0.0, 2022-10-23 13:23:03.121
44.0, -87017.2410627891, -119977.14578832935, 45640.76461085852, 53552.45513349237, 63123.91914414396, 112698.0543372696, 64546.36180953525, 70730.70952066297, 0.042, 0.9500000000000001, 0.082, 192.0, 0.0, 0.0, 0.0, 0.0, 0.0, 0.0, 0.0, 0.0, 0.0, 1.6665565831213036E9, 0.0, 2022-10-23 13:23:03.121
45.0, -87052.78033647304, -120008.21471312223, 47350.091916333666, 53714.79585347127, 63257.247299819865, 113452.73863705857, 65641.28436342292, 71857.59506912173, 0.042, 0.9500000000000001, 0.082, 192.0, 0.0, 0.0, 0.0, 0.0, 0.0, 0.0, 0.0, 0.0, 0.0, 1.6665565831213117E9, 0.0, 2022-10-23 13:23:03.121
46.0, -87025.98059487111, -119990.28861406907, 48139.84610317303, 53493.31241766363, 63109.256399781276, 113672.94802343227, 65995.827733973, 72007.1952947611, 0.032, 0.9540000000000001, 0.09, 192.0, 1.0, 0.0, 29.0, 208.0, 2.0, 208.0, 0.0, 0.0, 0.0, 1.6665565831213195E9, 0.0, 2022-10-23 13:23:03.121
47.0, -86997.8397486019, -119959.93494509876, 46033.44005744935, 53402.29611424162, 63000.64927347294, 112768.75290498172, 64665.87658713778, 70658.44633083897, 0.032, 0.9540000000000001, 0.09, 192.0, 0.0, 0.0, 0.0, 0.0, 0.0, 0.0, 0.0, 0.0, 0.0, 1.6665565831213279E9, 0.0, 2022-10-23 13:23:03.121
48.0, -87031.3450135404, -119984.63362272187, 45578.69381650613, 53554.39973525998, 63114.44200449491, 112667.23128166572, 64489.14134372966, 70652.70193251396, 0.032, 0.9540000000000001, 0.09, 192.0, 0.0, 0.0, 0.0, 0.0, 0.0, 0.0, 0.0, 0.0, 0.0, 1.6665565831213355E9, 0.0, 2022-10-23 13:23:03.121
49.0, -87057.72007199765, -120014.71907075871, 46949.302786505556, 53709.29732433526, 63245.870261892116, 113294.24241712599, 65397.382127926605, 71629.51786869978, 0.032, 0.9540000000000001, 0.09, 192.0, 0.0, 0.0, 0.0, 0.0, 0.0, 0.0, 0.0, 0.0, 0.0, 1.6665565831213436E9, 0.0, 2022-10-23 13:23:03.121
50.0, -87043.99610090209, -119998.71522172872, 48371.49958270784, 53570.40358428998, 63176.22222616938, 113810.34419659904, 66170.10428549103, 72218.77690777504, 0.032, 0.9540000000000001, 0.09, 192.0, 0.0, 0.0, 0.0, 0.0, 0.0, 0.0, 0.0, 0.0, 0.0, 1.666556583121379E9, 0.0, 2022-10-23 13:23:03.121
51.0, -87002.62302191532, -119950.88248859436, 46378.46158486147, 53377.7986023186, 62992.33442453557, 112911.11116541758, 64870.2609384371, 70836.14269925865, 0.032, 0.9540000000000001, 0.09, 192.0, 0.0, 0.0, 0.0, 0.0, 0.0, 0.0, 0.0, 0.0, 0.0, 1.6665565831213868E9, 0.0, 2022-10-23 13:23:03.121
52.0, -87030.294481551, -119980.29738429755, 45566.10978437779, 53540.429894975416, 63110.41869049295, 112656.81536874955, 64468.60009057523, 70602.52226621179, 0.032, 0.9540000000000001, 0.09, 192.0, 0.0, 0.0, 0.0, 0.0, 0.0, 0.0, 0.0, 0.0, 0.0, 1.6665565831213946E9, 0.0, 2022-10-23 13:23:03.121
53.0, -87073.54510707202, -120032.9804459787, 46573.16763081165, 53668.88537036006, 63211.381520197574, 113141.26707807387, 65169.43903797139, 71394.8022001746, 0.032, 0.9540000000000001, 0.09, 192.0, 0.0, 0.0, 0.0, 0.0, 0.0, 0.0, 0.0, 0.0, 0.0, 1.6665565831214025E9, 0.0, 2022-10-23 13:23:03.121
54.0, -87070.1029384259, -120039.01541698164, 48421.25456586535, 53616.403474379, 63194.0142147558, 113856.00881052123, 66232.7785769437, 72307.98271989617, 0.032, 0.9540000000000001, 0.09, 192.0, 0.0, 0.0, 0.0, 0.0, 0.0, 0.0, 0.0, 0.0, 0.0, 1.66655658312141E9, 0.0, 2022-10-23 13:23:03.121
55.0, -87015.54233021049, -119980.58795697546, 46759.89410399128, 53346.88613973691, 62962.42779045437, 113058.76678928934, 65101.57914180507, 71039.45416682413, 0.032, 0.9540000000000001, 0.09, 192.0, 0.0, 0.0, 0.0, 0.0, 0.0, 0.0, 0.0, 0.0, 0.0, 1.666556583121418E9, 0.0, 2022-10-23 13:23:03.121
56.0, -87016.70462092217, -119962.97478234468, 45554.97861563905, 53509.092749249074, 63069.44794290638, 112624.67356022281, 64439.498119294425, 70540.40676837049, 0.04, 0.964, 0.09, 192.0, 1.0, 64.0, 30.0, 32.0, 2.0, 208.0, 0.0, 0.0, 0.0, 1.666556583121426E9, 0.0, 2022-10-23 13:23:03.121
57.0, -87041.40329854528, -119984.58891923296, 46241.15481867252, 53661.48694294536, 63207.24644747334, 112998.05945134873, 64964.07120991602, 71190.59666283091, 0.04, 0.964, 0.09, 192.0, 0.0, 0.0, 0.0, 0.0, 0.0, 0.0, 0.0, 0.0, 0.0, 1.6665565831214342E9, 0.0, 2022-10-23 13:23:03.121
58.0, -87066.28079012404, -120017.60244579345, 48307.774759265754, 53695.43924277297, 63250.340610783176, 113830.05843520862, 66193.84183810257, 72321.55022878054, 0.04, 0.964, 0.09, 192.0, 0.0, 0.0, 0.0, 0.0, 0.0, 0.0, 0.0, 0.0, 0.0, 1.6665565831214423E9, 0.0, 2022-10-23 13:23:03.121
59.0, -87012.07780981992, -119976.3187737845, 47196.42367320343, 53374.6470063504, 62997.45297401583, 113239.3241809993, 65375.45506661595, 71321.22025742773, 0.04, 0.964, 0.09, 192.0, 0.0, 0.0, 0.0, 0.0, 0.0, 0.0, 0.0, 0.0, 0.0, 1.66655658312145E9, 0.0, 2022-10-23 13:23:03.121
60.0, -87015.1399988103, -119981.28086105357, 45624.15726472822, 53470.91596971941, 63039.4295501029, 112629.4344817918, 64461.38047711617, 70529.56617230966, 0.04, 0.964, 0.09, 192.0, 0.0, 0.0, 0.0, 0.0, 0.0, 0.0, 0.0, 0.0, 0.0, 1.666556583121458E9, 0.0, 2022-10-23 13:23:03.121
61.0, -87055.52960104104, -120014.31673935852, 45981.136975423935, 53599.86318348208, 63149.69070550093, 112865.87123464004, 64785.43606822921, 70994.34834651332, 0.04, 0.964, 0.09, 192.0, 0.0, 0.0, 0.0, 0.0, 0.0, 0.0, 0.0, 0.0, 0.0, 1.6665565831214657E9, 0.0, 2022-10-23 13:23:03.121
62.0, -87074.64034255032, -120036.31085590254, 48045.633500293916, 53700.24486783086, 63232.7721396413, 113726.23458221371, 66046.85676656447, 72205.81289599097, 0.04, 0.964, 0.09, 192.0, 0.0, 0.0, 0.0, 0.0, 0.0, 0.0, 0.0, 0.0, 0.0, 1.6665565831214736E9, 0.0, 2022-10-23 13:23:03.121
63.0, -87008.54623419598, -119974.97766911719, 47638.31766108485, 53403.52546018666, 63018.798889970654, 113433.53848857147, 65656.66236360816, 71608.1496010005, 0.04, 0.964, 0.09, 192.0, 0.0, 0.0, 0.0, 0.0, 0.0, 0.0, 0.0, 0.0, 0.0, 1.6665565831214817E9, 0.0, 2022-10-23 13:23:03.121
64.0, -86998.62205965782, -119956.93981134176, 45738.28527191702, 53452.38637356596, 63016.60841901403, 112660.36929611795, 64510.50961142893, 70544.49713760581, 0.04, 0.964, 0.09, 192.0, 0.0, 0.0, 0.0, 0.0, 0.0, 0.0, 0.0, 0.0, 0.0, 1.6665565831214893E9, 0.0, 2022-10-23 13:23:03.121
65.0, -87030.87562690684, -119981.3255645425, 45776.640865402325, 53593.761157245775, 63133.41863553747, 112760.08042813306, 64638.85332809131, 70838.6684463821, 0.04, 0.964, 0.09, 192.0, 0.0, 0.0, 0.0, 0.0, 0.0, 0.0, 0.0, 0.0, 0.0, 1.6665565831215053E9, 0.0, 2022-10-23 13:23:03.121
66.0, -87059.44115632071, -120012.37213759091, 47650.365251346266, 53746.69179280899, 63257.31435505323, 113564.63146980185, 65812.23050501711, 72023.22149553556, 0.03, 0.9560000000000001, 0.09, 192.0, 0.0, 240.0, 29.0, 224.0, 2.0, 208.0, 0.0, 0.0, 0.0, 1.6665565831215131E9, 0.0, 2022-10-23 13:23:03.121
67.0, -87020.3926587573, -119979.98445987517, 48002.47228175071, 53472.7711645092, 63071.10197199607, 113601.62360687538, 65894.84255252393, 71894.78837189537, 0.03, 0.9560000000000001, 0.09, 192.0, 0.0, 0.0, 0.0, 0.0, 0.0, 0.0, 0.0, 0.0, 0.0, 1.6665565831215217E9, 0.0, 2022-10-23 13:23:03.121
68.0, -87000.92428933672, -119962.57245094448, 45881.448195153265, 53423.19499530733, 62989.026366356185, 112693.0475465116, 64571.08283890282, 70599.0130423323, 0.03, 0.9560000000000001, 0.09, 192.0, 0.0, 0.0, 0.0, 0.0, 0.0, 0.0, 0.0, 0.0, 0.0, 1.666556583121529E9, 0.0, 2022-10-23 13:23:03.121
69.0, -87035.81536243146, -119993.39550654836, 45651.18052377469, 53575.253912836786, 63130.42350178045, 112697.76376459167, 64547.03236186891, 70744.947581881, 0.03, 0.9560000000000001, 0.09, 192.0, 0.0, 0.0, 0.0, 0.0, 0.0, 0.0, 0.0, 0.0, 0.0, 1.6665565831215372E9, 0.0, 2022-10-23 13:23:03.121
70.0, -87069.56649655897, -120025.96199821973, 47246.692746483415, 53720.29438260727, 63246.89844213706, 113408.70570048163, 65579.727659193, 71816.93724595752, 0.03, 0.9560000000000001, 0.09, 192.0, 0.0, 0.0, 0.0, 0.0, 0.0, 0.0, 0.0, 0.0, 0.0, 1.666556583121545E9, 0.0, 2022-10-23 13:23:03.121
71.0, -87045.53837126952, -120006.18070437679, 48255.65049119598, 53523.12964476701, 63117.235972551825, 113713.85171578548, 66070.72842964274, 72112.18143846768, 0.03, 0.9560000000000001, 0.09, 192.0, 0.0, 0.0, 0.0, 0.0, 0.0, 0.0, 0.0, 0.0, 0.0, 1.6665565831215572E9, 0.0, 2022-10-23 13:23:03.121
72.0, -86996.05160904546, -119956.85040436393, 46136.816875555145, 53395.14355601592, 62979.25865402921, 112777.09010566356, 64714.20105865015, 70722.41702347006, 0.03, 0.9560000000000001, 0.09, 192.0, 0.0, 0.0, 0.0, 0.0, 0.0, 0.0, 0.0, 0.0, 0.0, 1.666556583121565E9, 0.0, 2022-10-23 13:23:03.121
73.0, -87028.37223152784, -119987.2711285676, 45531.598690938794, 53554.198569559885, 63103.467297967356, 112608.89322863737, 64441.9121076956, 70630.73016771438, 0.03, 0.9560000000000001, 0.09, 192.0, 0.0, 0.0, 0.0, 0.0, 0.0, 0.0, 0.0, 0.0, 0.0, 1.6665565831215732E9, 0.0, 2022-10-23 13:23:03.121
74.0, -87063.73269125614, -120024.73265227469, 46781.955275768676, 53706.883335934086, 63229.933468095485, 113198.97928225748, 65289.378498718565, 71555.91357420845, 0.03, 0.9560000000000001, 0.09, 192.0, 0.0, 0.0, 0.0, 0.0, 0.0, 0.0, 0.0, 0.0, 0.0, 1.666556583121581E9, 0.0, 2022-10-23 13:23:03.121
75.0, -87046.49949628109, -120012.03686142409, 48391.19146957296, 53600.198459648906, 63174.81406626869, 113799.70476623831, 66186.46576243232, 72283.01582133959, 0.036000000000000004, 0.9540000000000001, 0.092, 192.0, 1.0, 32.0, 29.0, 208.0, 2.0, 224.0, 0.0, 0.0, 0.0, 1.6665565831215887E9, 0.0, 2022-10-23 13:23:03.121
76.0, -86998.7338183801, -119964.27118352309, 46485.10175765774, 53375.98811101772, 62969.80386612462, 112918.75546202129, 64921.33467451748, 70919.71587177705, 0.036000000000000004, 0.9540000000000001, 0.092, 192.0, 0.0, 0.0, 0.0, 0.0, 0.0, 0.0, 0.0, 0.0, 0.0, 1.6665565831215973E9, 0.0, 2022-10-23 13:23:03.121
77.0, -87020.41501050175, -119982.95724188772, 45503.45784466957, 53523.80019710067, 63067.77156207223, 112578.78542885608, 64401.2989880203, 70569.5534431402, 0.036000000000000004, 0.9540000000000001, 0.092, 192.0, 0.0, 0.0, 0.0, 0.0, 0.0, 0.0, 0.0, 0.0, 0.0, 1.6665565831216056E9, 0.0, 2022-10-23 13:23:03.121
78.0, -87046.83477244792, -120015.54608530356, 46396.678256592546, 53669.17594303798, 63191.86844728809, 113027.00496041834, 65043.88928936593, 71319.6779870603, 0.036000000000000004, 0.9540000000000001, 0.092, 192.0, 0.0, 0.0, 0.0, 0.0, 0.0, 0.0, 0.0, 0.0, 0.0, 1.6665565831216135E9, 0.0, 2022-10-23 13:23:03.121
79.0, -87063.01743543356, -120032.89103900088, 48373.645350175546, 53644.14198924804, 63200.1162409921, 113815.84272573504, 66201.26261726173, 72343.87962149139, 0.036000000000000004, 0.9540000000000001, 0.092, 192.0, 0.0, 0.0, 0.0, 0.0, 0.0, 0.0, 0.0, 0.0, 0.0, 1.6665565831216216E9, 0.0, 2022-10-23 13:23:03.121
80.0, -87005.99813532807, -119965.63463993487, 46908.57790810799, 53367.33798591352, 62978.02930808417, 113104.38669972261, 65185.82286665712, 71173.92226146726, 0.036000000000000004, 0.9540000000000001, 0.092, 192.0, 0.0, 0.0, 0.0, 0.0, 0.0, 0.0, 0.0, 0.0, 0.0, 1.6665565831216297E9, 0.0, 2022-10-23 13:23:03.121
81.0, -87005.77461788352, -119959.66672416529, 45549.234217314035, 53511.551441139156, 63060.82016954663, 112593.2246557742, 64417.92868589505, 70555.94123076693, 0.036000000000000004, 0.9540000000000001, 0.092, 192.0, 0.0, 0.0, 0.0, 0.0, 0.0, 0.0, 0.0, 0.0, 0.0, 1.6665565831216447E9, 0.0, 2022-10-23 13:23:03.121
82.0, -87040.53158051152, -119994.49074202667, 46102.350485605064, 53648.299413716726, 63185.00646174031, 112909.3006741167, 64861.36494414389, 71132.28096154702, 0.036000000000000004, 0.9540000000000001, 0.092, 192.0, 0.0, 0.0, 0.0, 0.0, 0.0, 0.0, 0.0, 0.0, 0.0, 1.6665565831216528E9, 0.0, 2022-10-23 13:23:03.121
83.0, -87068.8065372475, -120024.57619006351, 48184.34842638355, 53700.803661442245, 63237.42130248801, 113757.90700410689, 66108.88285742795, 72303.15474309382, 0.036000000000000004, 0.9540000000000001, 0.092, 192.0, 0.0, 0.0, 0.0, 0.0, 0.0, 0.0, 0.0, 0.0, 0.0, 1.6665565831216607E9, 0.0, 2022-10-23 13:23:03.121
84.0, -87009.70852490766, -119971.93783187126, 47358.74204143787, 53394.383596704436, 63010.484041033276, 113301.95376896308, 65471.81343696278, 71467.31125918761, 0.036000000000000004, 0.9540000000000001, 0.092, 192.0, 0.0, 0.0, 0.0, 0.0, 0.0, 0.0, 0.0, 0.0, 0.0, 1.6665565831216683E9, 0.0, 2022-10-23 13:23:03.121
85.0, -87005.28287950551, -119965.52288121259, 45654.19800927616, 53469.37369935199, 63031.24881163226, 112628.80863294705, 64466.43197136307, 70564.56900412668, 0.038, 0.9580000000000001, 0.09, 192.0, 1.0, 48.0, 29.0, 240.0, 2.0, 208.0, 0.0, 0.0, 0.0, 1.6665565831216764E9, 0.0, 2022-10-23 13:23:03.121
86.0, -87033.75900194157, -119993.68607922627, 45891.05944526904, 53603.908849228486, 63152.41761832448, 112817.50205963875, 64718.649055796755, 70968.42032294517, 0.038, 0.9580000000000001, 0.09, 192.0, 0.0, 0.0, 0.0, 0.0, 0.0, 0.0, 0.0, 0.0, 0.0, 1.6665565831216848E9, 0.0, 2022-10-23 13:23:03.121
87.0, -87068.22539189165, -120029.96296047723, 47920.17315866627, 53719.26620236233, 63251.100570094655, 113678.40184907935, 65975.28648081857, 72193.9888231741, 0.038, 0.9580000000000001, 0.09, 192.0, 0.0, 0.0, 0.0, 0.0, 0.0, 0.0, 0.0, 0.0, 0.0, 1.6665565831216924E9, 0.0, 2022-10-23 13:23:03.121
88.0, -87023.72306868114, -119993.03787863707, 47801.88772700879, 53421.00452435071, 63033.7298552668, 113503.25357952758, 65761.31323114791, 71762.30958250875, 0.038, 0.9580000000000001, 0.09, 192.0, 0.0, 0.0, 0.0, 0.0, 0.0, 0.0, 0.0, 0.0, 0.0, 1.6665565831217003E9, 0.0, 2022-10-23 13:23:03.121
89.0, -87001.72895213711, -119969.6132504479, 45822.90897642481, 53440.808169938115, 63009.075881132594, 112692.44404941131, 64557.82825444082, 70612.37938551657, 0.038, 0.9580000000000001, 0.09, 192.0, 0.0, 0.0, 0.0, 0.0, 0.0, 0.0, 0.0, 0.0, 0.0, 1.666556583121708E9, 0.0, 2022-10-23 13:23:03.121
90.0, -87030.3391850399, -119994.24487283766, 45740.34163240691, 53580.50657278378, 63118.10769058558, 112737.41575925538, 64608.56671435437, 70826.75496658742, 0.038, 0.9580000000000001, 0.09, 192.0, 0.0, 0.0, 0.0, 0.0, 0.0, 0.0, 0.0, 0.0, 0.0, 1.666556583121716E9, 0.0, 2022-10-23 13:23:03.121
91.0, -87068.91829596976, -120032.51105934514, 47501.83790944075, 53729.83857748969, 63234.89555536456, 113495.09519280138, 65720.2083730946, 71955.76393076943, 0.038, 0.9580000000000001, 0.09, 192.0, 0.0, 0.0, 0.0, 0.0, 0.0, 0.0, 0.0, 0.0, 0.0, 1.666556583121724E9, 0.0, 2022-10-23 13:23:03.121
92.0, -87032.48495250761, -120000.30219558504, 48116.60028893952, 53498.38626365498, 63095.420669963445, 113642.3708370174, 65968.60330922644, 71996.44410567809, 0.038, 0.9580000000000001, 0.09, 192.0, 0.0, 0.0, 0.0, 0.0, 0.0, 0.0, 0.0, 0.0, 0.0, 1.6665565831217315E9, 0.0, 2022-10-23 13:23:03.121
93.0, -87013.62008018733, -119983.51603549911, 45989.13889993893, 53405.55946893209, 62989.76397392321, 112727.84921262851, 64633.37715069976, 70659.25099363935, 0.038, 0.9580000000000001, 0.09, 192.0, 0.0, 0.0, 0.0, 0.0, 0.0, 0.0, 0.0, 0.0, 0.0, 1.6665565831217403E9, 0.0, 2022-10-23 13:23:03.121
94.0, -87034.02722287503, -120003.0738118975, 45625.297203695445, 53568.21311333336, 63122.22041156536, 112670.76285728966, 64522.80307087935, 70716.87379084513, 0.038, 0.9580000000000001, 0.09, 192.0, 0.0, 0.0, 0.0, 0.0, 0.0, 0.0, 0.0, 0.0, 0.0, 1.6665565831217484E9, 0.0, 2022-10-23 13:23:03.121
95.0, -87068.69477852521, -120039.37304489293, 47111.844672184554, 53726.172891399015, 63246.630221203595, 113348.8030253414, 65504.44698386753, 71749.61379165815, 0.04, 0.97, 0.088, 192.0, 1.0, 64.0, 30.0, 80.0, 2.0, 192.0, 0.0, 0.0, 0.0, 1.6665565831217563E9, 0.0, 2022-10-23 13:23:03.121
96.0, -87056.15544988579, -120026.65490229786, 48383.16719331351, 53561.462886507856, 63143.0522373977, 113784.48322826425, 66171.73596283626, 72225.97416948965, 0.04, 0.97, 0.088, 192.0, 0.0, 0.0, 0.0, 0.0, 0.0, 0.0, 0.0, 0.0, 0.0, 1.6665565831217716E9, 0.0, 2022-10-23 13:23:03.121
97.0, -87010.89316736379, -119979.69388719725, 46319.02829635481, 53378.46915465226, 62970.29560450264, 112854.49419671229, 64831.123033895856, 70825.14564098664, 0.04, 0.97, 0.088, 192.0, 0.0, 0.0, 0.0, 0.0, 0.0, 0.0, 0.0, 0.0, 0.0, 1.6665565831217802E9, 0.0, 2022-10-23 13:23:03.121
98.0, -87035.5918449869, -119993.48491352618, 45592.238973646046, 53538.462941463345, 63089.273940238236, 112635.38004581691, 64480.044183736354, 70647.67279001151, 0.04, 0.97, 0.088, 192.0, 0.0, 0.0, 0.0, 0.0, 0.0, 0.0, 0.0, 0.0, 0.0, 1.666556583121788E9, 0.0, 2022-10-23 13:23:03.121
99.0, -87074.28271463903, -120032.48870760069, 46688.23441126757, 53694.567524739214, 63210.53215390827, 113154.43225555806, 65229.051140433694, 71489.35007922055, 0.04, 0.97, 0.088, 192.0, 0.0, 0.0, 0.0, 0.0, 0.0, 0.0, 0.0, 0.0, 0.0, 1.6665565831217968E9, 0.0, 2022-10-23 13:23:03.121
100.0, -87073.09807218291, -120042.90462051686, 48436.20788290595, 53618.728055802356, 63179.574987837674, 113816.08859492405, 66215.6794924354, 72324.70182474874, 0.04, 0.97, 0.088, 192.0, 0.0, 0.0, 0.0, 0.0, 0.0, 0.0, 0.0, 0.0, 0.0, 1.6665565831218047E9, 0.0, 2022-10-23 13:23:03.121
101.0, -87007.71921965113, -119988.07579136798, 46677.28205648447, 53365.52749461264, 62957.912738074396, 112990.21398904492, 65030.925277581846, 71019.58346600336, 0.04, 0.97, 0.088, 192.0, 0.0, 0.0, 0.0, 0.0, 0.0, 0.0, 0.0, 0.0, 0.0, 1.6665565831218128E9, 0.0, 2022-10-23 13:23:03.121
102.0, -87026.78525767151, -119992.38967804787, 45563.271112831964, 53515.12772025201, 63054.785198543694, 112594.11872555241, 64424.27658132036, 70576.16955949897, 0.04, 0.97, 0.088, 192.0, 0.0, 0.0, 0.0, 0.0, 0.0, 0.0, 0.0, 0.0, 0.0, 1.6665565831218204E9, 0.0, 2022-10-23 13:23:03.121
103.0, -87075.13208092834, -120028.80066976557, 46302.845633369165, 53661.308128989716, 63180.46905761589, 112974.14308478155, 64970.62027104143, 71244.12909080138, 0.04, 0.97, 0.088, 192.0, 0.0, 0.0, 0.0, 0.0, 0.0, 0.0, 0.0, 0.0, 0.0, 1.6665565831218283E9, 0.0, 2022-10-23 13:23:03.121
104.0, -87083.75985428809, -120043.86574552844, 48361.08366979166, 53679.7706699098, 63221.99859881385, 113811.95352219982, 66194.93707358088, 72353.13324369589, 0.036000000000000004, 0.9580000000000001, 0.08600000000000001, 192.0, 1.0, 32.0, 29.0, 240.0, 2.0, 176.0, 0.0, 0.0, 0.0, 1.666556583121836E9, 0.0, 2022-10-23 13:23:03.121
105.0, -87017.285766278, -119986.19824483375, 47107.150805848934, 53384.43707042182, 62987.953482622324, 113176.18050291306, 65298.02862382277, 71284.4739895432, 0.036000000000000004, 0.9580000000000001, 0.08600000000000001, 192.0, 0.0, 0.0, 0.0, 0.0, 0.0, 0.0, 0.0, 0.0, 0.0, 1.6665565831218443E9, 0.0, 2022-10-23 13:23:03.121
106.0, -87038.13994385481, -120000.19043686277, 45606.99112498655, 53490.49609786226, 63039.67541929191, 112595.9292168533, 64430.87034593467, 70548.83337603013, 0.036000000000000004, 0.9580000000000001, 0.08600000000000001, 192.0, 0.0, 0.0, 0.0, 0.0, 0.0, 0.0, 0.0, 0.0, 0.0, 1.6665565831218524E9, 0.0, 2022-10-23 13:23:03.121
107.0, -87069.94647621471, -120025.49261158617, 46013.65876360641, 53618.83981452463, 63143.54397577572, 112840.59141166108, 64779.602262926375, 71036.70490225613, 0.036000000000000004, 0.9580000000000001, 0.08600000000000001, 192.0, 0.0, 0.0, 0.0, 0.0, 0.0, 0.0, 0.0, 0.0, 0.0, 1.66655658312186E9, 0.0, 2022-10-23 13:23:03.121
108.0, -87092.4099793923, -120051.13006247641, 48090.716968860266, 53707.53153652329, 63231.65455241854, 113698.25019815567, 66042.45347290677, 72245.1519662323, 0.036000000000000004, 0.9580000000000001, 0.08600000000000001, 192.0, 0.0, 0.0, 0.0, 0.0, 0.0, 0.0, 0.0, 0.0, 0.0, 1.666556583121868E9, 0.0, 2022-10-23 13:23:03.121
109.0, -87023.47719949213, -119993.19434084826, 47517.68529625956, 53410.610963178995, 63020.56467778262, 113347.48427241854, 65557.13004554869, 71560.83095798863, 0.036000000000000004, 0.9580000000000001, 0.08600000000000001, 192.0, 0.0, 0.0, 0.0, 0.0, 0.0, 0.0, 0.0, 0.0, 0.0, 1.6665565831218755E9, 0.0, 2022-10-23 13:23:03.121
110.0, -87020.1914930572, -119993.57432050399, 45656.52259069951, 53459.85185621403, 63011.33340732258, 112584.3733649699, 64431.92087792407, 70536.13758517952, 0.036000000000000004, 0.9580000000000001, 0.08600000000000001, 192.0, 0.0, 0.0, 0.0, 0.0, 0.0, 0.0, 0.0, 0.0, 0.0, 1.6665565831218832E9, 0.0, 2022-10-23 13:23:03.121
111.0, -87064.76087150107, -120031.0805477, 45763.498039662605, 53591.12365140005, 63123.11448134357, 112709.63254089744, 64599.96129273907, 70870.25146129745, 0.036000000000000004, 0.9580000000000001, 0.08600000000000001, 192.0, 0.0, 0.0, 0.0, 0.0, 0.0, 0.0, 0.0, 0.0, 0.0, 1.666556583121891E9, 0.0, 2022-10-23 13:23:03.121
112.0, -87098.62376435086, -120062.26123121516, 47736.82179889939, 53734.46538859193, 63246.80903515924, 113567.06780994748, 65840.72897919762, 72100.73734530657, 0.036000000000000004, 0.9580000000000001, 0.08600000000000001, 192.0, 0.0, 0.0, 0.0, 0.0, 0.0, 0.0, 0.0, 0.0, 0.0, 1.6665565831219072E9, 0.0, 2022-10-23 13:23:03.121
113.0, -87037.93877815471, -120013.91440795832, 47890.31122807399, 53452.140504376956, 63044.6822100499, 113508.59564645239, 65794.70673736415, 71840.0042462354, 0.036000000000000004, 0.9580000000000001, 0.08600000000000001, 192.0, 0.0, 0.0, 0.0, 0.0, 0.0, 0.0, 0.0, 0.0, 0.0, 1.666556583121915E9, 0.0, 2022-10-23 13:23:03.121
114.0, -87010.08850456339, -119988.88045416838, 45794.87988887786, 53425.51957673068, 62981.873808130484, 112617.76687118613, 64492.33764318677, 70584.75262936982, 0.032, 0.9520000000000001, 0.082, 192.0, 1.0, 0.0, 29.0, 192.0, 2.0, 144.0, 0.0, 0.0, 0.0, 1.6665565831219237E9, 0.0, 2022-10-23 13:23:03.121
115.0, -87044.80076370249, -120017.46833532672, 45601.671409806186, 53575.27626458124, 63106.48478346882, 112621.79018518809, 64479.28422442487, 70743.91940163606, 0.032, 0.9520000000000001, 0.082, 192.0, 0.0, 0.0, 0.0, 0.0, 0.0, 0.0, 0.0, 0.0, 0.0, 1.666556583121932E9, 0.0, 2022-10-23 13:23:03.121
116.0, -87082.19523217622, -120051.64415259888, 47287.2611626698, 53729.70446702296, 63237.7789303993, 113372.76409539749, 65568.06004858733, 71862.46774941299, 0.032, 0.9520000000000001, 0.082, 192.0, 0.0, 0.0, 0.0, 0.0, 0.0, 0.0, 0.0, 0.0, 0.0, 1.66655658312194E9, 0.0, 2022-10-23 13:23:03.121
117.0, -87055.7978219745, -120031.39347212238, 48198.27356317921, 53509.60683937155, 63102.416765977956, 113663.5826425055, 66014.04440570407, 72093.29421440295, 0.032, 0.9520000000000001, 0.082, 192.0, 0.0, 0.0, 0.0, 0.0, 0.0, 0.0, 0.0, 0.0, 0.0, 1.6665565831219475E9, 0.0, 2022-10-23 13:23:03.121
118.0, -87023.45484774768, -119998.84933219544, 46076.064834125624, 53389.846192580015, 62963.27715674367, 112739.5615267231, 64665.40720050421, 70714.86213384416, 0.032, 0.9520000000000001, 0.082, 192.0, 0.0, 0.0, 0.0, 0.0, 0.0, 0.0, 0.0, 0.0, 0.0, 1.6665565831219552E9, 0.0, 2022-10-23 13:23:03.121
119.0, -87047.57238001494, -120022.20690515125, 45539.53356022043, 53554.24327304879, 63078.925082555426, 112589.60367317245, 64426.7576249549, 70659.07217968372, 0.032, 0.9520000000000001, 0.082, 192.0, 0.0, 0.0, 0.0, 0.0, 0.0, 0.0, 0.0, 0.0, 0.0, 1.6665565831219633E9, 0.0, 2022-10-23 13:23:03.121
120.0, -87091.13592995834, -120066.39630393939, 46879.744157760644, 53704.04466438826, 63205.50301140583, 113209.8198783183, 65320.24625781134, 71620.80068836221, 0.032, 0.9520000000000001, 0.082, 192.0, 0.0, 0.0, 0.0, 0.0, 0.0, 0.0, 0.0, 0.0, 0.0, 1.666556583121971E9, 0.0, 2022-10-23 13:23:03.121
121.0, -87067.5995430469, -120046.34678916297, 48355.40632670002, 53576.46090703737, 63139.54301351822, 113744.6971231338, 66123.36678783498, 72248.72824534515, 0.032, 0.9520000000000001, 0.082, 192.0, 0.0, 0.0, 0.0, 0.0, 0.0, 0.0, 0.0, 0.0, 0.0, 1.6665565836000435E9, 0.0, 2022-10-23 13:23:03.600
122.0, -87018.31394652295, -120000.27984384059, 46405.551899141305, 53380.61492211997, 62962.114866031996, 112864.6865921839, 64847.618621303875, 70888.04344988387, 0.032, 0.9520000000000001, 0.082, 192.0, 0.0, 0.0, 0.0, 0.0, 0.0, 0.0, 0.0, 0.0, 0.0, 1.6665565836000898E9, 0.0, 2022-10-23 13:23:03.600
123.0, -87036.44121127621, -120013.71324225822, 45531.73280140553, 53539.15584554146, 63059.210843945846, 112571.69992586374, 64399.1979240415, 70608.33371977016, 0.032, 0.9520000000000001, 0.082, 192.0, 0.0, 0.0, 0.0, 0.0, 0.0, 0.0, 0.0, 0.0, 0.0, 1.6665565836001248E9, 0.0, 2022-10-23 13:23:03.600
124.0, -87076.40613036229, -120052.9852572662, 46495.450615340545, 53679.81537339871, 63177.25040641432, 113038.65021927956, 65073.77357170267, 71387.4931797377, 0.034, 0.9460000000000001, 0.088, 192.0, 1.0, 16.0, 29.0, 144.0, 2.0, 192.0, 0.0, 0.0, 0.0, 1.6665565836001427E9, 0.0, 2022-10-23 13:23:03.600
125.0, -87076.18261291774, -120052.27000144363, 48372.930094352974, 53638.66581185649, 63174.70230754642, 113764.67958267685, 66154.21219518331, 72333.95544695323, 0.034, 0.9460000000000001, 0.088, 192.0, 0.0, 0.0, 0.0, 0.0, 0.0, 0.0, 0.0, 0.0, 0.0, 1.6665565836001515E9, 0.0, 2022-10-23 13:23:03.600
126.0, -87008.68034466272, -119985.63945122236, 46803.614116145865, 53381.84426806501, 62972.41902022589, 113020.79117545977, 65087.40813582041, 71125.10605157686, 0.034, 0.9460000000000001, 0.088, 192.0, 0.0, 0.0, 0.0, 0.0, 0.0, 0.0, 0.0, 0.0, 0.0, 1.6665565836001594E9, 0.0, 2022-10-23 13:23:03.600
127.0, -87027.00877511606, -119999.25166359564, 45543.15454282219, 53512.378455684004, 63050.605422330555, 112557.95360302372, 64385.4963046904, 70578.27062347777, 0.034, 0.9460000000000001, 0.088, 192.0, 0.0, 0.0, 0.0, 0.0, 0.0, 0.0, 0.0, 0.0, 0.0, 1.6665565836002188E9, 0.0, 2022-10-23 13:23:03.600
128.0, -87066.57136280196, -120035.84146926898, 46183.88964937802, 53648.075896272174, 63174.72465929087, 112913.59220905212, 64882.6661566098, 71197.83862803443, 0.034, 0.9460000000000001, 0.088, 192.0, 0.0, 0.0, 0.0, 0.0, 0.0, 0.0, 0.0, 0.0, 0.0, 1.6665565836002269E9, 0.0, 2022-10-23 13:23:03.600
129.0, -87086.84439502293, -120059.31080094706, 48263.7418226888, 53690.47715550389, 63219.60696215713, 113757.81759712906, 66125.17727913587, 72345.06426394753, 0.034, 0.9460000000000001, 0.088, 192.0, 0.0, 0.0, 0.0, 0.0, 0.0, 0.0, 0.0, 0.0, 0.0, 1.6665565836002345E9, 0.0, 2022-10-23 13:23:03.600
130.0, -87031.52382749604, -120011.0310329236, 47240.38955454702, 53382.09013725402, 62977.44816272833, 113209.66341610711, 65361.55228156475, 71396.12095309746, 0.034, 0.9460000000000001, 0.088, 192.0, 0.0, 0.0, 0.0, 0.0, 0.0, 0.0, 0.0, 0.0, 0.0, 1.666556583600242E9, 0.0, 2022-10-23 13:23:03.600
131.0, -87032.95433914117, -120010.00285267865, 45600.35265688332, 53476.9732924668, 63007.57831425409, 112560.90403329182, 64395.06285131727, 70552.36495165408, 0.034, 0.9460000000000001, 0.088, 192.0, 0.0, 0.0, 0.0, 0.0, 0.0, 0.0, 0.0, 0.0, 0.0, 1.6665565836002495E9, 0.0, 2022-10-23 13:23:03.600
132.0, -87059.798784232, -120032.1310796894, 45873.24510493816, 53613.63185806655, 63126.28842905622, 112744.00952386971, 64658.589918445345, 70975.9528608266, 0.034, 0.9460000000000001, 0.088, 192.0, 0.0, 0.0, 0.0, 0.0, 0.0, 0.0, 0.0, 0.0, 0.0, 1.6665565836002574E9, 0.0, 2022-10-23 13:23:03.600
133.0, -87083.29046765453, -120054.75104507817, 47919.636716799345, 53722.70837100844, 63228.860584361624, 113600.23779871916, 65915.40615742281, 72201.78958198901, 0.034, 0.9460000000000001, 0.088, 192.0, 0.0, 0.0, 0.0, 0.0, 0.0, 0.0, 0.0, 0.0, 0.0, 1.6665565836002653E9, 0.0, 2022-10-23 13:23:03.600
134.0, -87036.06123162046, -120015.2331608812, 47597.8833553652, 53419.86458538349, 63012.003959656235, 113340.1976037261, 65574.69851669057, 71660.40797953702, 0.036000000000000004, 0.9520000000000001, 0.088, 192.0, 1.0, 32.0, 29.0, 192.0, 2.0, 192.0, 0.0, 0.0, 0.0, 1.666556583600273E9, 0.0, 2022-10-23 13:23:03.600
135.0, -87037.2458740766, -120013.9814631917, 45708.60215528037, 53444.496207773234, 63001.36452929551, 112589.0225278166, 64444.90724145261, 70596.28612950875, 0.036000000000000004, 0.9520000000000001, 0.088, 192.0, 0.0, 0.0, 0.0, 0.0, 0.0, 0.0, 0.0, 0.0, 0.0, 1.6665565836002865E9, 0.0, 2022-10-23 13:23:03.600
136.0, -87067.01839769106, -120038.8813065149, 45740.87807427384, 53580.43951755042, 63111.424518993445, 112699.19427623681, 64580.04588842939, 70883.483694015, 0.036000000000000004, 0.9520000000000001, 0.088, 192.0, 0.0, 0.0, 0.0, 0.0, 0.0, 0.0, 0.0, 0.0, 0.0, 1.666556583600294E9, 0.0, 2022-10-23 13:23:03.600
137.0, -87099.04844749552, -120069.03380978512, 47603.9853816015, 53723.73655125339, 63228.54765993925, 113506.85221038488, 65757.28991714596, 72060.32539133137, 0.036000000000000004, 0.9520000000000001, 0.088, 192.0, 0.0, 0.0, 0.0, 0.0, 0.0, 0.0, 0.0, 0.0, 0.0, 1.6665565836003017E9, 0.0, 2022-10-23 13:23:03.600
138.0, -87048.13117362633, -120024.91146623033, 48024.019363405634, 53471.832391242075, 63058.026201489716, 113558.66355403227, 65873.56369180247, 71966.44806461908, 0.036000000000000004, 0.9520000000000001, 0.088, 192.0, 0.0, 0.0, 0.0, 0.0, 0.0, 0.0, 0.0, 0.0, 0.0, 1.6665565836003094E9, 0.0, 2022-10-23 13:23:03.600
139.0, -87009.08267606291, -119986.17589308928, 45909.72315188923, 53424.62550695247, 62984.958348865315, 112662.06802869655, 64554.5872514948, 70666.29179314278, 0.036000000000000004, 0.9520000000000001, 0.088, 192.0, 0.0, 0.0, 0.0, 0.0, 0.0, 0.0, 0.0, 0.0, 0.0, 1.666556583600317E9, 0.0, 2022-10-23 13:23:03.600
140.0, -87041.73857471212, -120016.03782368157, 45604.30891565191, 53570.15771510098, 63103.71316715636, 112624.53944975609, 64475.1715034451, 70759.94560241052, 0.036000000000000004, 0.9520000000000001, 0.088, 192.0, 0.0, 0.0, 0.0, 0.0, 0.0, 0.0, 0.0, 0.0, 0.0, 1.6665565836003249E9, 0.0, 2022-10-23 13:23:03.600
141.0, -87076.8531652514, -120048.85018454197, 47165.44415538837, 53728.72099026692, 63236.88486062108, 113327.99355125352, 65495.193361663034, 71825.56501931728, 0.036000000000000004, 0.9520000000000001, 0.088, 192.0, 0.0, 0.0, 0.0, 0.0, 0.0, 0.0, 0.0, 0.0, 0.0, 1.6665565836003325E9, 0.0, 2022-10-23 13:23:03.600
142.0, -87052.98150217313, -120029.13594593239, 48275.87881992803, 53543.51443571025, 63118.35355977459, 113684.79444799358, 66055.6410021354, 72191.37366907283, 0.036000000000000004, 0.9520000000000001, 0.088, 192.0, 0.0, 0.0, 0.0, 0.0, 0.0, 0.0, 0.0, 0.0, 0.0, 1.66655658360034E9, 0.0, 2022-10-23 13:23:03.600
143.0, -87016.36934475534, -119991.94264315876, 46169.62923641554, 53395.27766648265, 62966.853435856516, 112748.8598524165, 64699.068927653905, 70791.95330047052, 0.04, 0.9500000000000001, 0.084, 192.0, 1.0, 64.0, 29.0, 176.0, 2.0, 160.0, 0.0, 0.0, 0.0, 1.6665565836003556E9, 0.0, 2022-10-23 13:23:03.600
144.0, -87044.33137706893, -120018.98825394968, 45517.11476053176, 53550.37642125803, 63081.786105845706, 112558.17712046829, 64393.40882222758, 70664.7271710309, 0.04, 0.9500000000000001, 0.084, 192.0, 0.0, 0.0, 0.0, 0.0, 0.0, 0.0, 0.0, 0.0, 0.0, 1.6665565836003644E9, 0.0, 2022-10-23 13:23:03.600
145.0, -87090.89006076934, -120063.57998413802, 46729.24986234306, 53701.34010330917, 63209.77219459679, 113133.82394717025, 65219.97633218484, 71570.17398717094, 0.04, 0.9500000000000001, 0.084, 192.0, 0.0, 0.0, 0.0, 0.0, 0.0, 0.0, 0.0, 0.0, 0.0, 1.666556583600372E9, 0.0, 2022-10-23 13:23:03.600
146.0, -87086.44206362273, -120060.24957421418, 48402.05441737824, 53602.34422711661, 63163.705249274404, 113767.71941992277, 66164.49399763274, 72341.37622611239, 0.04, 0.9500000000000001, 0.084, 192.0, 0.0, 0.0, 0.0, 0.0, 0.0, 0.0, 0.0, 0.0, 0.0, 1.6665565836003797E9, 0.0, 2022-10-23 13:23:03.600
147.0, -87018.2915947785, -119995.09423912696, 46531.50397914696, 53378.80443081909, 62958.27036598568, 112895.26377859876, 64917.400767493345, 70989.98975634453, 0.04, 0.9500000000000001, 0.084, 192.0, 0.0, 0.0, 0.0, 0.0, 0.0, 0.0, 0.0, 0.0, 0.0, 1.666556583600387E9, 0.0, 2022-10-23 13:23:03.600
148.0, -87034.80953393097, -120008.10295439995, 45521.92038558965, 53535.601918173066, 63068.55387312816, 112553.10327447693, 64385.16102852357, 70623.71171995542, 0.04, 0.9500000000000001, 0.084, 192.0, 0.0, 0.0, 0.0, 0.0, 0.0, 0.0, 0.0, 0.0, 0.0, 1.6665565836003945E9, 0.0, 2022-10-23 13:23:03.600
149.0, -87070.66173203728, -120043.9328007618, 46340.396564054085, 53675.568541952205, 63179.84320877114, 112960.75438985282, 64976.14115192189, 71328.2387051867, 0.04, 0.9500000000000001, 0.084, 192.0, 0.0, 0.0, 0.0, 0.0, 0.0, 0.0, 0.0, 0.0, 0.0, 1.666556583600402E9, 0.0, 2022-10-23 13:23:03.600
150.0, -87084.16218568828, -120060.98718178121, 48320.67171581647, 53665.19733252494, 63194.908284534016, 113741.61258239897, 66134.609715296, 72366.76780781362, 0.04, 0.9500000000000001, 0.084, 192.0, 0.0, 0.0, 0.0, 0.0, 0.0, 0.0, 0.0, 0.0, 0.0, 1.6665565836004095E9, 0.0, 2022-10-23 13:23:03.600
151.0, -87020.97380411313, -120001.35272757444, 46924.53705364908, 53382.96185528778, 62964.03711605515, 113051.30130664127, 65155.31273547563, 71230.00278830562, 0.04, 0.9500000000000001, 0.084, 192.0, 0.0, 0.0, 0.0, 0.0, 0.0, 0.0, 0.0, 0.0, 0.0, 1.6665565836004171E9, 0.0, 2022-10-23 13:23:03.600
152.0, -87034.31779555295, -120007.34299508846, 45539.1982840536, 53511.0820545056, 63046.33623913959, 112541.74858829363, 64376.39914469709, 70588.99946081633, 0.04, 0.9500000000000001, 0.084, 192.0, 0.0, 0.0, 0.0, 0.0, 0.0, 0.0, 0.0, 0.0, 0.0, 1.6665565836004245E9, 0.0, 2022-10-23 13:23:03.600
153.0, -87066.63841803532, -120034.74623379068, 46027.29332772414, 53644.320803203686, 63160.73246726185, 112824.34169344208, 64776.11539079135, 71126.51421147755, 0.04, 0.9520000000000001, 0.08600000000000001, 192.0, 1.0, 64.0, 29.0, 192.0, 2.0, 176.0, 0.0, 0.0, 0.0, 1.6665565836004322E9, 0.0, 2022-10-23 13:23:03.600
154.0, -87091.42650263626, -120061.81419632604, 48106.56435567908, 53717.38865582808, 63236.281363520786, 113676.30078510057, 66029.26594367814, 72315.80583045553, 0.04, 0.9520000000000001, 0.08600000000000001, 192.0, 0.0, 0.0, 0.0, 0.0, 0.0, 0.0, 0.0, 0.0, 0.0, 1.6665565836004403E9, 0.0, 2022-10-23 13:23:03.600
155.0, -87034.25074031958, -120011.09808815696, 47349.890750633574, 53405.82768986555, 63003.86792467451, 113240.88880311119, 65428.96514284196, 71515.56867546662, 0.04, 0.9520000000000001, 0.08600000000000001, 192.0, 0.0, 0.0, 0.0, 0.0, 0.0, 0.0, 0.0, 0.0, 0.0, 1.666556583600448E9, 0.0, 2022-10-23 13:23:03.600
156.0, -87031.9485106407, -120000.5704165185, 45585.17582239817, 53472.83821974257, 63021.034064416184, 112537.34529463593, 64382.098839533195, 70569.3522774401, 0.04, 0.9520000000000001, 0.08600000000000001, 192.0, 0.0, 0.0, 0.0, 0.0, 0.0, 0.0, 0.0, 0.0, 0.0, 1.6665565836004553E9, 0.0, 2022-10-23 13:23:03.600
157.0, -87072.2040024047, -120033.02514946762, 45774.53980142353, 53604.110014928585, 63132.92689715945, 112702.2564652272, 64604.36458639677, 70945.86741278975, 0.04, 0.9520000000000001, 0.08600000000000001, 192.0, 0.0, 0.0, 0.0, 0.0, 0.0, 0.0, 0.0, 0.0, 0.0, 1.666556583600464E9, 0.0, 2022-10-23 13:23:03.600
158.0, -87108.88321505586, -120076.00755405516, 47807.07333172242, 53723.021295430815, 63233.86737511962, 113580.18828394274, 65874.56952030296, 72186.05395389246, 0.04, 0.9520000000000001, 0.08600000000000001, 192.0, 0.0, 0.0, 0.0, 0.0, 0.0, 0.0, 0.0, 0.0, 0.0, 1.6665565836004791E9, 0.0, 2022-10-23 13:23:03.600
159.0, -87050.76867947205, -120028.57715232101, 47793.528174582505, 53439.98115539327, 63025.012674929225, 113454.34796265936, 65724.43285279666, 71818.36775760267, 0.04, 0.9520000000000001, 0.08600000000000001, 192.0, 0.0, 0.0, 0.0, 0.0, 0.0, 0.0, 0.0, 0.0, 0.0, 1.666556583600487E9, 0.0, 2022-10-23 13:23:03.600
160.0, -87020.32560352393, -119992.50143677014, 45776.61851365787, 53456.09676314554, 63002.59387524056, 112618.37036828643, 64487.599073362246, 70636.0722346392, 0.04, 0.9520000000000001, 0.08600000000000001, 192.0, 0.0, 0.0, 0.0, 0.0, 0.0, 0.0, 0.0, 0.0, 0.0, 1.6665565836004949E9, 0.0, 2022-10-23 13:23:03.600
161.0, -87053.65205450679, -120027.50426858716, 45667.877276882806, 53587.525020542744, 63118.487670241324, 112658.15647341686, 64526.55816394785, 70843.20585050654, 0.04, 0.9520000000000001, 0.08600000000000001, 192.0, 0.0, 0.0, 0.0, 0.0, 0.0, 0.0, 0.0, 0.0, 0.0, 1.6665565836005025E9, 0.0, 2022-10-23 13:23:03.600
162.0, -87091.87353752536, -120066.66452487285, 47409.324039140236, 53738.01931596033, 63236.504880965345, 113417.35582558582, 65630.80139527337, 71974.49469262299, 0.04, 0.9520000000000001, 0.08600000000000001, 192.0, 0.0, 0.0, 0.0, 0.0, 0.0, 0.0, 0.0, 0.0, 0.0, 1.6665565836005116E9, 0.0, 2022-10-23 13:23:03.600
163.0, -87055.30608359649, -120031.7287482892, 48138.035611872154, 53508.198679470865, 63089.25158849378, 113618.20860126121, 65951.12424506238, 72085.5158073325, 0.038, 0.9520000000000001, 0.08600000000000001, 192.0, 1.0, 48.0, 29.0, 192.0, 2.0, 176.0, 0.0, 0.0, 0.0, 1.6665565836005197E9, 0.0, 2022-10-23 13:23:03.600
164.0, -87016.72697266663, -119996.16712286082, 45998.95131575481, 53419.9092888724, 62984.24309304274, 112693.09225000051, 64600.631845072734, 70728.92138110654, 0.038, 0.9520000000000001, 0.08600000000000001, 192.0, 0.0, 0.0, 0.0, 0.0, 0.0, 0.0, 0.0, 0.0, 0.0, 1.6665565836005275E9, 0.0, 2022-10-23 13:23:03.600
165.0, -87043.43730729072, -120023.70447202976, 45567.58499951184, 53574.58336050312, 63106.35067300209, 112599.5278477106, 64438.42523556057, 70742.13126207964, 0.038, 0.9520000000000001, 0.08600000000000001, 192.0, 0.0, 0.0, 0.0, 0.0, 0.0, 0.0, 0.0, 0.0, 0.0, 1.6665565836005356E9, 0.0, 2022-10-23 13:23:03.600
166.0, -87081.21175542018, -120055.95803927876, 46985.55731601207, 53734.89007173658, 63237.28719202128, 113246.40968399165, 65374.91862474902, 71745.14344276708, 0.038, 0.9520000000000001, 0.08600000000000001, 192.0, 0.0, 0.0, 0.0, 0.0, 0.0, 0.0, 0.0, 0.0, 0.0, 1.6665565836005433E9, 0.0, 2022-10-23 13:23:03.600
167.0, -87075.60146756191, -120050.92889677631, 48331.02057349928, 53576.95264541539, 63144.92978393195, 113718.03149199863, 66091.00146186369, 72279.2607282711, 0.038, 0.9520000000000001, 0.08600000000000001, 192.0, 0.0, 0.0, 0.0, 0.0, 0.0, 0.0, 0.0, 0.0, 0.0, 1.666556583600551E9, 0.0, 2022-10-23 13:23:03.600
168.0, -87031.72499319614, -120010.98632943469, 46299.58227867869, 53385.86758206697, 62963.52302593268, 112803.24164667627, 64770.236881999605, 70884.95890914905, 0.038, 0.9520000000000001, 0.08600000000000001, 192.0, 0.0, 0.0, 0.0, 0.0, 0.0, 0.0, 0.0, 0.0, 0.0, 1.6665565836005602E9, 0.0, 2022-10-23 13:23:03.600
169.0, -87059.46350806516, -120035.81911752453, 45510.5433476619, 53542.2850897652, 63076.42168717644, 112552.6115360989, 64379.930720321034, 70665.46477859793, 0.038, 0.9520000000000001, 0.08600000000000001, 192.0, 0.0, 0.0, 0.0, 0.0, 0.0, 0.0, 0.0, 0.0, 0.0, 1.6665565836005676E9, 0.0, 2022-10-23 13:23:03.600
170.0, -87091.91824101428, -120066.10573126147, 46554.660386402655, 53690.43245201498, 63195.48942988985, 113052.21772816393, 65102.98730170576, 71483.53862566217, 0.038, 0.9520000000000001, 0.08600000000000001, 192.0, 0.0, 0.0, 0.0, 0.0, 0.0, 0.0, 0.0, 0.0, 0.0, 1.6665565836005778E9, 0.0, 2022-10-23 13:23:03.600
171.0, -87092.61114509239, -120068.74323710719, 48340.74358233733, 53631.24503269733, 63175.14934243552, 113730.3473031935, 66118.69527324382, 72359.4811391212, 0.038, 0.9520000000000001, 0.08600000000000001, 192.0, 0.0, 0.0, 0.0, 0.0, 0.0, 0.0, 0.0, 0.0, 0.0, 1.666556583600587E9, 0.0, 2022-10-23 13:23:03.600
172.0, -87027.00877511606, -120005.9795386767, 46633.40558211871, 53384.77234658866, 62966.47345620078, 112925.7515580358, 64964.89822446087, 71084.2247109681, 0.036000000000000004, 0.9540000000000001, 0.082, 192.0, 1.0, 32.0, 29.0, 208.0, 2.0, 144.0, 0.0, 0.0, 0.0, 1.6665565836005976E9, 0.0, 2022-10-23 13:23:03.600
173.0, -87035.23421707562, -120019.56939930552, 45463.247056394466, 53538.26177576325, 63064.77642831522, 112507.7068814882, 64324.18546964949, 70608.08785058116, 0.036000000000000004, 0.9540000000000001, 0.082, 192.0, 0.0, 0.0, 0.0, 0.0, 0.0, 0.0, 0.0, 0.0, 0.0, 1.666556583600614E9, 0.0, 2022-10-23 13:23:03.600
174.0, -87078.30602864099, -120062.28358295962, 46173.65255041749, 53670.248826771836, 63175.48461860236, 112881.80802843667, 64857.475740608665, 71260.4682159982, 0.036000000000000004, 0.9540000000000001, 0.082, 192.0, 0.0, 0.0, 0.0, 0.0, 0.0, 0.0, 0.0, 0.0, 0.0, 1.666556583600622E9, 0.0, 2022-10-23 13:23:03.600
175.0, -87102.49061614164, -120081.08140004652, 48234.08105779661, 53683.324597278195, 63210.24158123036, 113712.51061111815, 66082.03841233712, 72381.34114519849, 0.036000000000000004, 0.9540000000000001, 0.082, 192.0, 0.0, 0.0, 0.0, 0.0, 0.0, 0.0, 0.0, 0.0, 0.0, 1.66655658360063E9, 0.0, 2022-10-23 13:23:03.600
176.0, -87040.10689736687, -120018.94355046077, 47075.74660488923, 53382.96185528778, 62975.235340027255, 113120.85993538618, 65246.91018425348, 71368.42714171733, 0.036000000000000004, 0.9540000000000001, 0.082, 192.0, 0.0, 0.0, 0.0, 0.0, 0.0, 0.0, 0.0, 0.0, 0.0, 1.6665565836006377E9, 0.0, 2022-10-23 13:23:03.600
177.0, -87040.35276655588, -120020.7316900172, 45522.41212396767, 53494.29589441966, 63025.07973016259, 112517.96633219319, 64344.92788850402, 70592.53103644027, 0.036000000000000004, 0.9540000000000001, 0.082, 192.0, 0.0, 0.0, 0.0, 0.0, 0.0, 0.0, 0.0, 0.0, 0.0, 1.6665565836006455E9, 0.0, 2022-10-23 13:23:03.600
178.0, -87080.63061006434, -120052.24764969917, 45905.52102393163, 53625.41122739449, 63146.49440604382, 112764.68488749086, 64686.59665424784, 71074.90403353024, 0.036000000000000004, 0.9540000000000001, 0.082, 192.0, 0.0, 0.0, 0.0, 0.0, 0.0, 0.0, 0.0, 0.0, 0.0, 1.6665565836006546E9, 0.0, 2022-10-23 13:23:03.600
179.0, -87101.10480798541, -120069.2349754852, 47990.42469148931, 53724.60826928714, 63238.13655831058, 113637.74402591516, 65961.49545448965, 72301.1654378373, 0.036000000000000004, 0.9540000000000001, 0.082, 192.0, 0.0, 0.0, 0.0, 0.0, 0.0, 0.0, 0.0, 0.0, 0.0, 1.6665565836006627E9, 0.0, 2022-10-23 13:23:03.600
180.0, -87040.64333923381, -120015.52373355911, 47519.719305005, 53421.09393132853, 63019.40238707094, 113326.33952216382, 65536.18646099407, 71671.65090699804, 0.036000000000000004, 0.9540000000000001, 0.082, 192.0, 0.0, 0.0, 0.0, 0.0, 0.0, 0.0, 0.0, 0.0, 0.0, 1.6665565836006703E9, 0.0, 2022-10-23 13:23:03.600
181.0, -87024.0359931035, -120002.96205317523, 45652.18635227518, 53470.13365866347, 63012.31688407861, 112573.51041716462, 64415.33588353824, 70630.66311248102, 0.036000000000000004, 0.9540000000000001, 0.082, 192.0, 0.0, 0.0, 0.0, 0.0, 0.0, 0.0, 0.0, 0.0, 0.0, 1.666556583600678E9, 0.0, 2022-10-23 13:23:03.600
182.0, -87056.78129873054, -120034.14273669038, 45713.720704760635, 53610.837890009636, 63133.41863553747, 112683.61511035147, 64556.53185326241, 70935.56325859587, 0.034, 0.9580000000000001, 0.082, 192.0, 1.0, 16.0, 29.0, 240.0, 2.0, 144.0, 0.0, 0.0, 0.0, 1.6665565836006858E9, 0.0, 2022-10-23 13:23:03.600
183.0, -87093.21464219269, -120070.41961794134, 47629.08639062481, 53743.33903114069, 63246.25024154786, 113505.73462316212, 65756.26173690101, 72135.60606665684, 0.034, 0.9580000000000001, 0.082, 192.0, 0.0, 0.0, 0.0, 0.0, 0.0, 0.0, 0.0, 0.0, 0.0, 1.6665565836006942E9, 0.0, 2022-10-23 13:23:03.600
184.0, -87046.20892360318, -120026.54314357557, 47896.167385121276, 53478.78378376768, 63060.06021023515, 113499.11850680334, 65783.10618199184, 71953.79697725737, 0.034, 0.9580000000000001, 0.082, 192.0, 0.0, 0.0, 0.0, 0.0, 0.0, 0.0, 0.0, 0.0, 0.0, 1.6665565836007032E9, 0.0, 2022-10-23 13:23:03.600
185.0, -87028.3945832723, -120010.96397769022, 45817.25398507762, 53435.7119722023, 62984.22074129829, 112625.25470557866, 64496.45036416654, 70695.99726152388, 0.034, 0.9580000000000001, 0.082, 192.0, 0.0, 0.0, 0.0, 0.0, 0.0, 0.0, 0.0, 0.0, 0.0, 1.6665565836007109E9, 0.0, 2022-10-23 13:23:03.600
186.0, -87066.39254884631, -120049.29721943107, 45579.81140372889, 53560.72527894083, 63082.68017562392, 112607.03803384758, 64449.556404299314, 70818.90950428361, 0.034, 0.9580000000000001, 0.082, 192.0, 0.0, 0.0, 0.0, 0.0, 0.0, 0.0, 0.0, 0.0, 0.0, 1.6665565836007185E9, 0.0, 2022-10-23 13:23:03.600
187.0, -87109.2631947116, -120084.9482518373, 47199.016475560245, 53718.908574451045, 63210.28628471927, 113323.81377504037, 65492.041765694834, 71903.23733129948, 0.034, 0.9580000000000001, 0.082, 192.0, 0.0, 0.0, 0.0, 0.0, 0.0, 0.0, 0.0, 0.0, 0.0, 1.666556583600726E9, 0.0, 2022-10-23 13:23:03.600
188.0, -87053.9426271847, -120035.46148961324, 48190.338693897575, 53538.48529320781, 63104.786050890216, 113647.51173824213, 65987.2223123577, 72196.98395693112, 0.034, 0.9580000000000001, 0.082, 192.0, 0.0, 0.0, 0.0, 0.0, 0.0, 0.0, 0.0, 0.0, 0.0, 1.6665565836007335E9, 0.0, 2022-10-23 13:23:03.600
189.0, -87011.00492608607, -119996.70356472774, 46065.91714214291, 53411.862660868486, 62972.307261503614, 112715.5557531781, 64633.33244721084, 70811.39931814664, 0.034, 0.9580000000000001, 0.082, 192.0, 0.0, 0.0, 0.0, 0.0, 0.0, 0.0, 0.0, 0.0, 0.0, 1.6665565836007483E9, 0.0, 2022-10-23 13:23:03.600
190.0, -87043.41495554626, -120019.94937896126, 45507.05647552687, 53561.90992139697, 63088.290463482204, 112568.48127466218, 64392.447697216005, 70743.67353244705, 0.034, 0.9580000000000001, 0.082, 192.0, 0.0, 0.0, 0.0, 0.0, 0.0, 0.0, 0.0, 0.0, 0.0, 1.666556583600756E9, 0.0, 2022-10-23 13:23:03.600
191.0, -87076.11555768437, -120050.4371583983, 46783.18462171371, 53721.25550761885, 63219.6740173905, 113159.79667422733, 65248.02777147625, 71677.3729535786, 0.034, 0.9580000000000001, 0.082, 192.0, 0.0, 0.0, 0.0, 0.0, 0.0, 0.0, 0.0, 0.0, 0.0, 1.6665565836007643E9, 0.0, 2022-10-23 13:23:03.600
192.0, -87058.1000516534, -120037.33903614749, 48355.38397495556, 53615.33059064515, 63172.69065054544, 113749.72626563624, 66123.36678783498, 72380.89411030938, 0.042, 0.9560000000000001, 0.074, 192.0, 1.0, 80.0, 29.0, 224.0, 2.0, 80.0, 0.0, 0.0, 0.0, 1.6665565836007717E9, 0.0, 2022-10-23 13:23:03.600
193.0, -87008.32271675143, -119986.86879716741, 46437.358431501205, 53402.005541563696, 62977.93990110635, 112878.16469409046, 64863.1083802114, 71020.27637008147, 0.042, 0.9560000000000001, 0.074, 192.0, 0.0, 0.0, 0.0, 0.0, 0.0, 0.0, 0.0, 0.0, 0.0, 1.6665565836007805E9, 0.0, 2022-10-23 13:23:03.600
194.0, -87039.39164154431, -120015.52373355911, 45495.83589981031, 53552.63394744801, 63079.685041866906, 112559.1158937354, 64371.951147550484, 70693.62797661162, 0.042, 0.9560000000000001, 0.074, 192.0, 0.0, 0.0, 0.0, 0.0, 0.0, 0.0, 0.0, 0.0, 0.0, 1.666556583600788E9, 0.0, 2022-10-23 13:23:03.600
195.0, -87073.14277567182, -120047.95611476376, 46395.11363448067, 53689.24780955885, 63190.437935642956, 112999.95934962743, 65007.27713194813, 71436.19763090582, 0.042, 0.9560000000000001, 0.074, 192.0, 0.0, 0.0, 0.0, 0.0, 0.0, 0.0, 0.0, 0.0, 0.0, 1.666556583600796E9, 0.0, 2022-10-23 13:23:03.600
196.0, -87081.03294146454, -120057.99204802419, 48300.51044231778, 53672.17107679499, 63201.3679386816, 113738.61744864196, 66105.32893005955, 72414.57818920353, 0.042, 0.9560000000000001, 0.074, 192.0, 0.0, 0.0, 0.0, 0.0, 0.0, 0.0, 0.0, 0.0, 0.0, 1.6665565836008036E9, 0.0, 2022-10-23 13:23:03.600
197.0, -87037.6482054768, -120019.21177139423, 46810.16317727127, 53384.302959955094, 62979.19159879585, 113028.14489938557, 65083.11660088499, 71238.83172736547, 0.042, 0.9560000000000001, 0.074, 192.0, 0.0, 0.0, 0.0, 0.0, 0.0, 0.0, 0.0, 0.0, 0.0, 1.6665565836008112E9, 0.0, 2022-10-23 13:23:03.600
198.0, -87052.8473917064, -120031.34876863347, 45511.415065695655, 53514.07718826261, 63049.75605604125, 112557.26069894561, 64359.97061252244, 70654.19949939246, 0.042, 0.9560000000000001, 0.074, 192.0, 0.0, 0.0, 0.0, 0.0, 0.0, 0.0, 0.0, 0.0, 0.0, 1.6665565836008189E9, 0.0, 2022-10-23 13:23:03.600
199.0, -87069.14181341432, -120043.15048970586, 46082.34567431756, 53666.404326725526, 63172.91416798999, 112872.39794402098, 64808.14544059581, 71230.06984353898, 0.042, 0.9560000000000001, 0.074, 192.0, 0.0, 0.0, 0.0, 0.0, 0.0, 0.0, 0.0, 0.0, 0.0, 1.6665565836008272E9, 0.0, 2022-10-23 13:23:03.600
200.0, -87087.22437467866, -120061.65773411487, 48150.485533533756, 53718.908574451045, 63227.45242446094, 113704.06165171406, 66041.9393827843, 72385.09623826698, 0.042, 0.9560000000000001, 0.074, 192.0, 0.0, 0.0, 0.0, 0.0, 0.0, 0.0, 0.0, 0.0, 0.0, 1.666556583600835E9, 0.0, 2022-10-23 13:23:03.600
201.0, -87023.87953089233, -120004.63843400938, 47222.73167642733, 53415.93067835936, 62996.71536644881, 113192.65373857663, 65333.79141495126, 71493.6192624115, 0.042, 0.9560000000000001, 0.074, 192.0, 0.0, 0.0, 0.0, 0.0, 0.0, 0.0, 0.0, 0.0, 0.0, 1.6665565836008427E9, 0.0, 2022-10-23 13:23:03.600
202.0, -87024.70654543716, -120004.66078575383, 45533.87856887324, 53507.48342364829, 63031.98641919928, 112527.7116927757, 64339.33995239019, 70617.27441755228, 0.046, 0.9520000000000001, 0.076, 192.0, 1.0, 112.0, 29.0, 192.0, 2.0, 96.0, 0.0, 0.0, 0.0, 1.6665565836008503E9, 0.0, 2022-10-23 13:23:03.600
203.0, -87056.51307779708, -120034.0309779681, 45779.12190903687, 53642.75618109181, 63148.88604270054, 112712.33710197653, 64594.30630139188, 71027.42892830717, 0.046, 0.9520000000000001, 0.076, 192.0, 0.0, 0.0, 0.0, 0.0, 0.0, 0.0, 0.0, 0.0, 0.0, 1.6665565836008587E9, 0.0, 2022-10-23 13:23:03.600
204.0, -87088.29725841252, -120063.89290856039, 47809.21909919013, 53751.67623182252, 63246.362000270135, 113567.78306577004, 65845.51225251106, 72250.09170175693, 0.046, 0.9520000000000001, 0.076, 192.0, 0.0, 0.0, 0.0, 0.0, 0.0, 0.0, 0.0, 0.0, 0.0, 1.6665565836008735E9, 0.0, 2022-10-23 13:23:03.600
205.0, -87040.75509795608, -120018.72003301622, 47617.776407930425, 53451.60406251002, 63041.932945481894, 113369.4113337292, 65591.12704886521, 71786.22594907593, 0.046, 0.9520000000000001, 0.076, 192.0, 0.0, 0.0, 0.0, 0.0, 0.0, 0.0, 0.0, 0.0, 0.0, 1.666556583600881E9, 0.0, 2022-10-23 13:23:03.600
206.0, -87032.95433914117, -120009.35465208945, 45656.813163377425, 53463.89752196045, 63012.60745675653, 112572.25871947512, 64405.45641248899, 70658.40162735005, 0.046, 0.9520000000000001, 0.076, 192.0, 0.0, 0.0, 0.0, 0.0, 0.0, 0.0, 0.0, 0.0, 0.0, 1.6665565836008885E9, 0.0, 2022-10-23 13:23:03.600
207.0, -87059.73172899864, -120035.3273791465, 45624.69370659515, 53599.46085208188, 63125.21554532237, 112651.3838948469, 64497.50089615594, 70908.36118559375, 0.046, 0.9520000000000001, 0.076, 192.0, 0.0, 0.0, 0.0, 0.0, 0.0, 0.0, 0.0, 0.0, 0.0, 1.6665565836008964E9, 0.0, 2022-10-23 13:23:03.600
208.0, -87100.50131088511, -120074.50998717666, 47436.660222609076, 53730.643240290075, 63231.85571811864, 113439.23818340758, 65647.52050012595, 72068.52848154647, 0.046, 0.9520000000000001, 0.076, 192.0, 0.0, 0.0, 0.0, 0.0, 0.0, 0.0, 0.0, 0.0, 0.0, 1.6665565836009037E9, 0.0, 2022-10-23 13:23:03.600
209.0, -87051.97567367264, -120030.78997502208, 47996.16908981432, 53492.93243800789, 63071.794876074186, 113564.43030410176, 65861.78432247452, 72069.69077225814, 0.046, 0.9520000000000001, 0.076, 192.0, 0.0, 0.0, 0.0, 0.0, 0.0, 0.0, 0.0, 0.0, 0.0, 1.6665565836009111E9, 0.0, 2022-10-23 13:23:03.600
210.0, -87020.37030701284, -120003.1185153864, 45874.60856134994, 53425.27370754167, 62984.44425874284, 112661.35277287397, 64534.73890241849, 70745.43932025901, 0.046, 0.9520000000000001, 0.076, 192.0, 0.0, 0.0, 0.0, 0.0, 0.0, 0.0, 0.0, 0.0, 0.0, 1.6665565836009188E9, 0.0, 2022-10-23 13:23:03.600
211.0, -87048.91348468227, -120027.10193718696, 45534.68323167363, 53575.097450625595, 63107.021225335746, 112614.83879266249, 64435.8100814593, 70816.22729494897, 0.044, 0.9460000000000001, 0.078, 192.0, 1.0, 96.0, 29.0, 144.0, 2.0, 112.0, 0.0, 0.0, 0.0, 1.6665565836009264E9, 0.0, 2022-10-23 13:23:03.600
212.0, -87083.55868858799, -120057.3885509239, 47030.37256364496, 53734.26422289184, 63231.811014629726, 113288.49801880098, 65415.911724080055, 71850.08488298475, 0.044, 0.9460000000000001, 0.078, 192.0, 0.0, 0.0, 0.0, 0.0, 0.0, 0.0, 0.0, 0.0, 0.0, 1.6665565836009345E9, 0.0, 2022-10-23 13:23:03.600
213.0, -87067.554839558, -120047.44202464129, 48256.52220922973, 53556.45609574987, 63130.13292910254, 113711.68359657332, 66057.51854866964, 72297.1197720909, 0.044, 0.9460000000000001, 0.078, 192.0, 0.0, 0.0, 0.0, 0.0, 0.0, 0.0, 0.0, 0.0, 0.0, 1.6665565836009421E9, 0.0, 2022-10-23 13:23:03.600
214.0, -87014.84942613238, -119994.91542517132, 46167.84109685911, 53390.98613154723, 62966.09347654504, 112774.38554458447, 64702.93577944467, 70886.97056615002, 0.044, 0.9460000000000001, 0.078, 192.0, 0.0, 0.0, 0.0, 0.0, 0.0, 0.0, 0.0, 0.0, 0.0, 1.6665565836009498E9, 0.0, 2022-10-23 13:23:03.600
215.0, -87037.40233628778, -120008.61704452241, 45457.61441679173, 53565.307386554174, 63093.36430947355, 112555.53961462255, 64360.149426478085, 70720.98651182491, 0.044, 0.9460000000000001, 0.078, 192.0, 0.0, 0.0, 0.0, 0.0, 0.0, 0.0, 0.0, 0.0, 0.0, 1.6665565836009574E9, 0.0, 2022-10-23 13:23:03.600
216.0, -87087.82787177895, -120056.1368532344, 46588.83620367482, 53711.264277847324, 63212.14147950906, 113087.17585649203, 65128.870621785005, 71580.09816170909, 0.044, 0.9460000000000001, 0.078, 192.0, 0.0, 0.0, 0.0, 0.0, 0.0, 0.0, 0.0, 0.0, 0.0, 1.6665565836009648E9, 0.0, 2022-10-23 13:23:03.600
217.0, -87087.91727875678, -120062.39534168188, 48296.33066610464, 53623.265459926784, 63172.02009821178, 113726.03341651362, 66087.67105193986, 72385.69973536728, 0.044, 0.9460000000000001, 0.078, 192.0, 0.0, 0.0, 0.0, 0.0, 0.0, 0.0, 0.0, 0.0, 0.0, 1.6665565836009724E9, 0.0, 2022-10-23 13:23:03.600
218.0, -87020.30325177948, -119998.82698045099, 46518.74113306298, 53385.53230590014, 62973.08957255955, 112906.26083687077, 64903.900313842336, 71083.1294754898, 0.044, 0.9460000000000001, 0.078, 192.0, 0.0, 0.0, 0.0, 0.0, 0.0, 0.0, 0.0, 0.0, 0.0, 1.66655658360098E9, 0.0, 2022-10-23 13:23:03.600
219.0, -87030.56270248446, -120006.4712770547, 45441.52116078391, 53535.87013910653, 63070.20790221786, 112533.85842250091, 64325.63833303909, 70666.80588326525, 0.044, 0.9460000000000001, 0.078, 192.0, 0.0, 0.0, 0.0, 0.0, 0.0, 0.0, 0.0, 0.0, 0.0, 1.6665565836009877E9, 0.0, 2022-10-23 13:23:03.600
220.0, -87066.32549361295, -120038.56838209253, 46192.62918146005, 53678.78719315377, 63188.113354219604, 112913.03341544073, 64874.463066394695, 71339.66044660336, 0.044, 0.9460000000000001, 0.078, 192.0, 0.0, 0.0, 0.0, 0.0, 0.0, 0.0, 0.0, 0.0, 0.0, 1.6665565836010025E9, 0.0, 2022-10-23 13:23:03.601
221.0, -87085.77151128907, -120062.86472831544, 48247.98384284781, 53691.46063225993, 63233.73326465288, 113752.47553020425, 66099.94215964581, 72450.13981463193, 0.038, 0.9480000000000001, 0.08, 192.0, 1.0, 48.0, 29.0, 160.0, 2.0, 128.0, 0.0, 0.0, 0.0, 1.666556583601011E9, 0.0, 2022-10-23 13:23:03.601
222.0, -87024.99711811509, -120007.2759398551, 46940.697364890264, 53386.71694835627, 62985.04775584314, 113091.64620538309, 65168.65672691545, 71348.42233042984, 0.038, 0.9480000000000001, 0.08, 192.0, 0.0, 0.0, 0.0, 0.0, 0.0, 0.0, 0.0, 0.0, 0.0, 1.6665565836010191E9, 0.0, 2022-10-23 13:23:03.601
223.0, -87027.05347860498, -120005.4207450653, 45473.50650709945, 53514.74774059626, 63057.55681485615, 112532.89729748933, 64328.901687729565, 70643.76123473182, 0.038, 0.9480000000000001, 0.08, 192.0, 0.0, 0.0, 0.0, 0.0, 0.0, 0.0, 0.0, 0.0, 0.0, 1.6665565836010268E9, 0.0, 2022-10-23 13:23:03.601
224.0, -87054.9931591741, -120031.32641688902, 45930.35381202147, 53655.65313764253, 63178.56915933719, 112811.93647526938, 64718.38083486329, 71171.50827306608, 0.038, 0.9480000000000001, 0.08, 192.0, 0.0, 0.0, 0.0, 0.0, 0.0, 0.0, 0.0, 0.0, 0.0, 1.6665565836010344E9, 0.0, 2022-10-23 13:23:03.601
225.0, -87093.79578754853, -120069.14556850739, 48021.44891279327, 53726.84344373267, 63247.971325870916, 113676.23372986719, 65988.40695481384, 72379.06126726404, 0.038, 0.9480000000000001, 0.08, 192.0, 0.0, 0.0, 0.0, 0.0, 0.0, 0.0, 0.0, 0.0, 0.0, 1.6665565836010432E9, 0.0, 2022-10-23 13:23:03.601
226.0, -87018.26924303404, -119999.49753278465, 47376.601085257666, 53429.74405643273, 63018.307151592635, 113286.6428240112, 65453.3508960427, 71644.44883399592, 0.038, 0.9480000000000001, 0.08, 192.0, 0.0, 0.0, 0.0, 0.0, 0.0, 0.0, 0.0, 0.0, 0.0, 1.6665565836010509E9, 0.0, 2022-10-23 13:23:03.601
227.0, -87011.76488539754, -119991.2720908251, 45529.98936533801, 53503.32599917961, 63034.892145978476, 112531.82441375547, 64341.128091946615, 70634.2170398494, 0.038, 0.9480000000000001, 0.08, 192.0, 0.0, 0.0, 0.0, 0.0, 0.0, 0.0, 0.0, 0.0, 0.0, 1.6665565836010585E9, 0.0, 2022-10-23 13:23:03.601
228.0, -87056.02133941905, -120028.26422789863, 45689.04437888198, 53631.24503269733, 63159.30195561671, 112697.58495063602, 64554.94487940609, 71001.16562857218, 0.038, 0.9480000000000001, 0.08, 192.0, 0.0, 0.0, 0.0, 0.0, 0.0, 0.0, 0.0, 0.0, 0.0, 1.666556583601066E9, 0.0, 2022-10-23 13:23:03.601
229.0, -87080.07181645297, -120057.67912360182, 47671.86762951227, 53757.152409214075, 63263.550491756265, 113550.86279521738, 65794.88555131979, 72227.56114334597, 0.038, 0.9480000000000001, 0.08, 192.0, 0.0, 0.0, 0.0, 0.0, 0.0, 0.0, 0.0, 0.0, 0.0, 1.6665565836010735E9, 0.0, 2022-10-23 13:23:03.601
230.0, -87026.47233324914, -120013.35561434695, 47759.285302076976, 53478.8731907455, 63062.11657072503, 113461.09818948487, 65705.38916652073, 71927.93600892258, 0.038, 0.9480000000000001, 0.08, 192.0, 0.0, 0.0, 0.0, 0.0, 0.0, 0.0, 0.0, 0.0, 0.0, 1.6665565836010811E9, 0.0, 2022-10-23 13:23:03.601
231.0, -87007.51805395103, -119994.80366644904, 45703.57301277793, 53464.210446382815, 63015.55788702463, 112603.64056869037, 64439.6098780167, 70705.72027036194, 0.038, 0.97, 0.084, 192.0, 1.0, 48.0, 30.0, 80.0, 2.0, 160.0, 0.0, 0.0, 0.0, 1.6665565836010892E9, 0.0, 2022-10-23 13:23:03.601
232.0, -87049.18170561573, -120029.56062907704, 45544.56270272288, 53596.89040146952, 63125.416711022466, 112623.9359526558, 64446.38245658666, 70881.65085096966, 0.038, 0.97, 0.084, 192.0, 0.0, 0.0, 0.0, 0.0, 0.0, 0.0, 0.0, 0.0, 0.0, 1.666556583601097E9, 0.0, 2022-10-23 13:23:03.601
233.0, -87079.98240947514, -120059.57902188052, 47246.87156043906, 53753.509074867856, 63247.16666307052, 113374.73104890955, 65538.17576625058, 72007.77644011694, 0.038, 0.97, 0.084, 192.0, 0.0, 0.0, 0.0, 0.0, 0.0, 0.0, 0.0, 0.0, 0.0, 1.666556583601105E9, 0.0, 2022-10-23 13:23:03.601
234.0, -87054.61317951838, -120039.50715535965, 48072.679111084835, 53529.70105763687, 63107.937646858416, 113611.05604303553, 65917.26135221259, 72185.96454691465, 0.038, 0.97, 0.084, 192.0, 0.0, 0.0, 0.0, 0.0, 0.0, 0.0, 0.0, 0.0, 0.0, 1.6665565836011128E9, 0.0, 2022-10-23 13:23:03.601
235.0, -87025.57826347093, -120009.71228000073, 45941.350870293485, 53411.7061986573, 62983.25961628671, 112683.10102022899, 64564.86905394424, 70807.89009426715, 0.038, 0.97, 0.084, 192.0, 0.0, 0.0, 0.0, 0.0, 0.0, 0.0, 0.0, 0.0, 0.0, 1.6665565836011274E9, 0.0, 2022-10-23 13:23:03.601
236.0, -87037.67055722125, -120014.24968412516, 45480.45789962506, 53578.91959892745, 63112.45269923839, 112587.88258884939, 64392.6488629161, 70800.89399825264, 0.038, 0.97, 0.084, 192.0, 0.0, 0.0, 0.0, 0.0, 0.0, 0.0, 0.0, 0.0, 0.0, 1.666556583601135E9, 0.0, 2022-10-23 13:23:03.601
237.0, -87064.89498196781, -120037.94253324778, 46840.4050875193, 53746.02124047533, 63242.51750022382, 113214.1784684871, 65301.53784770225, 71776.70410593797, 0.038, 0.97, 0.084, 192.0, 0.0, 0.0, 0.0, 0.0, 0.0, 0.0, 0.0, 0.0, 0.0, 1.666556583601143E9, 0.0, 2022-10-23 13:23:03.601
238.0, -87075.1544326728, -120052.2923531881, 48252.5883022056, 53586.78741297572, 63140.66060074099, 113707.57087559353, 66061.31834522705, 72356.19543268626, 0.038, 0.97, 0.084, 192.0, 0.0, 0.0, 0.0, 0.0, 0.0, 0.0, 0.0, 0.0, 0.0, 1.6665565836011505E9, 0.0, 2022-10-23 13:23:03.601
239.0, -87021.97963261363, -119999.94456767375, 46243.92643498498, 53392.9530850593, 62951.676601371364, 112791.7752017707, 64747.95219277766, 70961.2007094861, 0.038, 0.97, 0.084, 192.0, 0.0, 0.0, 0.0, 0.0, 0.0, 0.0, 0.0, 0.0, 0.0, 1.666556583601158E9, 0.0, 2022-10-23 13:23:03.601
240.0, -87027.25464430507, -120005.48780029868, 45395.54362243934, 53568.61544473356, 63084.513018669255, 112520.87205897237, 64324.431338838505, 70707.41900294054, 0.034, 0.96, 0.08, 192.0, 1.0, 16.0, 30.0, 0.0, 2.0, 128.0, 0.0, 0.0, 0.0, 1.6665565836011667E9, 0.0, 2022-10-23 13:23:03.601
241.0, -87058.52473479805, -120041.20588793825, 46404.143739240615, 53721.99311518588, 63214.823688843695, 113020.00886440383, 65038.81544337457, 71515.43456499989, 0.034, 0.96, 0.08, 192.0, 0.0, 0.0, 0.0, 0.0, 0.0, 0.0, 0.0, 0.0, 0.0, 1.6665565840802677E9, 0.0, 2022-10-23 13:23:04.080
242.0, -87054.36731032935, -120043.0834344725, 48253.035337094705, 53677.177867552986, 63201.1667729815, 113728.11212874796, 66100.99269163521, 72439.38862554892, 0.034, 0.96, 0.08, 192.0, 0.0, 0.0, 0.0, 0.0, 0.0, 0.0, 0.0, 0.0, 0.0, 1.6665565840803103E9, 0.0, 2022-10-23 13:23:04.080
243.0, -87006.53457719501, -119995.63068099388, 46619.63690753424, 53403.30194274211, 62981.00209009673, 112945.33168617866, 64988.72518405023, 71190.9542907422, 0.034, 0.96, 0.08, 192.0, 0.0, 0.0, 0.0, 0.0, 0.0, 0.0, 0.0, 0.0, 0.0, 1.666556584080336E9, 0.0, 2022-10-23 13:23:04.080
244.0, -87038.89990316628, -120024.3303208745, 45409.960497613014, 53523.017886044734, 63055.74632355527, 112511.81960246798, 64328.99109470739, 70671.20917692294, 0.034, 0.96, 0.08, 192.0, 0.0, 0.0, 0.0, 0.0, 0.0, 0.0, 0.0, 0.0, 0.0, 1.6665565840803728E9, 0.0, 2022-10-23 13:23:04.080
245.0, -87051.01454866107, -120037.16022219184, 46054.29423502615, 53678.563675709214, 63184.93940650695, 112859.61274619255, 64826.4515193047, 71293.39233558087, 0.034, 0.96, 0.08, 192.0, 0.0, 0.0, 0.0, 0.0, 0.0, 0.0, 0.0, 0.0, 0.0, 1.6665565840803883E9, 0.0, 2022-10-23 13:23:04.080
246.0, -87066.79488024651, -120050.57126886502, 48138.23677757225, 53720.54025179628, 63243.00923860184, 113709.49312561669, 66075.57875818954, 72449.06693089807, 0.034, 0.96, 0.08, 192.0, 0.0, 0.0, 0.0, 0.0, 0.0, 0.0, 0.0, 0.0, 0.0, 1.6665565840803964E9, 0.0, 2022-10-23 13:23:04.080
247.0, -86991.93888806569, -119982.13022734287, 47068.68345364135, 53423.03853309614, 63010.43933754437, 113144.28456357535, 65287.63506265105, 71477.39189593696, 0.034, 0.96, 0.08, 192.0, 0.0, 0.0, 0.0, 0.0, 0.0, 0.0, 0.0, 0.0, 0.0, 1.6665565840804043E9, 0.0, 2022-10-23 13:23:04.080
248.0, -86997.37036196832, -119985.21476807771, 45451.46768706652, 53537.18889202939, 63061.28955618019, 112509.02563441107, 64345.956068748965, 70656.21115639343, 0.034, 0.96, 0.08, 192.0, 0.0, 0.0, 0.0, 0.0, 0.0, 0.0, 0.0, 0.0, 0.0, 1.666556584080412E9, 0.0, 2022-10-23 13:23:04.080
249.0, -87040.50922876707, -120022.98921620718, 45773.46691768967, 53663.9679865799, 63167.661508043, 112724.4070439824, 64650.94562184163, 71101.30144373197, 0.034, 0.96, 0.08, 192.0, 0.0, 0.0, 0.0, 0.0, 0.0, 0.0, 0.0, 0.0, 0.0, 1.66655658408042E9, 0.0, 2022-10-23 13:23:04.080
250.0, -87077.68017979624, -120057.81323406856, 47829.33566919991, 53756.1912842025, 63247.837215404186, 113583.2057694442, 65911.06991899847, 72318.8680194459, 0.034, 0.9580000000000001, 0.076, 192.0, 1.0, 16.0, 29.0, 240.0, 2.0, 96.0, 0.0, 0.0, 0.0, 1.666556584080486E9, 0.0, 2022-10-23 13:23:04.080
251.0, -87023.43249600321, -120010.09225965646, 47475.97694110596, 53453.36985032199, 63029.907706964936, 113315.9459609921, 65558.69466766056, 71757.39219872859, 0.034, 0.9580000000000001, 0.076, 192.0, 0.0, 0.0, 0.0, 0.0, 0.0, 0.0, 0.0, 0.0, 0.0, 1.6665565840805E9, 0.0, 2022-10-23 13:23:04.080
252.0, -87007.62981267332, -119994.42368679329, 45557.16908659567, 53486.24926641575, 63018.307151592635, 112531.5114893331, 64398.90735136359, 70672.25970891234, 0.034, 0.9580000000000001, 0.076, 192.0, 0.0, 0.0, 0.0, 0.0, 0.0, 0.0, 0.0, 0.0, 0.0, 1.6665565840805085E9, 0.0, 2022-10-23 13:23:04.080
253.0, -87039.36928979986, -120024.55383831906, 45600.57617432787, 53627.5569948622, 63143.81219670919, 112645.4383308218, 64539.41041700965, 70967.66036363368, 0.034, 0.9580000000000001, 0.076, 192.0, 0.0, 0.0, 0.0, 0.0, 0.0, 0.0, 0.0, 0.0, 0.0, 1.6665565840805163E9, 0.0, 2022-10-23 13:23:04.080
254.0, -87074.79680476151, -120057.52266139063, 47480.53669697484, 53764.126153484125, 63248.9771543714, 113458.81831155042, 65725.6621987417, 72151.60991568684, 0.034, 0.9580000000000001, 0.076, 192.0, 0.0, 0.0, 0.0, 0.0, 0.0, 0.0, 0.0, 0.0, 0.0, 1.6665565840805244E9, 0.0, 2022-10-23 13:23:04.080
255.0, -87021.8902256358, -120009.53346604509, 47870.68639644222, 53509.91976379392, 63074.030050519716, 113507.45570748518, 65832.68235119371, 72042.71221670059, 0.034, 0.9580000000000001, 0.076, 192.0, 0.0, 0.0, 0.0, 0.0, 0.0, 0.0, 0.0, 0.0, 0.0, 1.6665565840805323E9, 0.0, 2022-10-23 13:23:04.080
0.0, -86990.77659735401, -119979.2692040526, 45767.63311238684, 53464.568074294104, 62999.10700310553, 112617.20807757475, 64526.15583254765, 70750.04377961681, 0.034, 0.9580000000000001, 0.076, 192.0, 0.0, 0.0, 0.0, 0.0, 0.0, 0.0, 0.0, 0.0, 0.0, 1.6665565840805402E9, 0.0, 2022-10-23 13:23:04.080
1.0, -87019.54329246799, -120006.71714624371, 45490.40442590767, 53617.0069714793, 63122.06394935417, 112589.15663828334, 64462.65452655012, 70857.55567044683, 0.034, 0.9580000000000001, 0.076, 192.0, 0.0, 0.0, 0.0, 0.0, 0.0, 0.0, 0.0, 0.0, 0.0, 1.6665565840805516E9, 0.0, 2022-10-23 13:23:04.080
2.0, -87061.63162727734, -120045.3856641514, 47063.85547683901, 53768.663557608554, 63238.49418622186, 113287.78276297842, 65482.43051557905, 71923.42095654261, 0.034, 0.9580000000000001, 0.076, 192.0, 0.0, 0.0, 0.0, 0.0, 0.0, 0.0, 0.0, 0.0, 0.0, 1.6665565840805628E9, 0.0, 2022-10-23 13:23:04.080
3.0, -87037.22352233215, -120025.00087320816, 48145.38933579795, 53570.470639523344, 63117.146565574, 113637.45345323723, 66027.29899016608, 72268.57659442147, 0.034, 0.9580000000000001, 0.076, 192.0, 0.0, 0.0, 0.0, 0.0, 0.0, 0.0, 0.0, 0.0, 0.0, 1.6665565840805736E9, 0.0, 2022-10-23 13:23:04.080
4.0, -86982.41704492773, -119975.53646272856, 46049.19803729034, 53432.761541934204, 62978.34223250655, 112716.89685784542, 64686.484895525566, 70882.45551377005, 0.04, 0.9540000000000001, 0.076, 192.0, 1.0, 64.0, 29.0, 208.0, 2.0, 96.0, 0.0, 0.0, 0.0, 1.6665565840805817E9, 0.0, 2022-10-23 13:23:04.080
5.0, -87006.78044638401, -119992.79200944807, 45440.00124216095, 53588.106165898585, 63094.90657984097, 112549.4152366418, 64415.26882830487, 70779.43632357554, 0.04, 0.9540000000000001, 0.076, 192.0, 0.0, 0.0, 0.0, 0.0, 0.0, 0.0, 0.0, 0.0, 0.0, 1.66655658408059E9, 0.0, 2022-10-23 13:23:04.080
6.0, -87047.93000792623, -120029.73944303268, 46642.48039036756, 53734.95712696995, 63212.25323823134, 113103.60438866669, 65225.407806087474, 71668.92399417449, 0.04, 0.9540000000000001, 0.076, 192.0, 0.0, 0.0, 0.0, 0.0, 0.0, 0.0, 0.0, 0.0, 0.0, 1.666556584080598E9, 0.0, 2022-10-23 13:23:04.080
7.0, -87031.68028970722, -120024.59854180797, 48244.76519164624, 53642.420904924984, 63168.063839443195, 113691.16469516334, 66113.53202027465, 72397.90378783987, 0.04, 0.9540000000000001, 0.076, 192.0, 0.0, 0.0, 0.0, 0.0, 0.0, 0.0, 0.0, 0.0, 0.0, 1.6665565840806108E9, 0.0, 2022-10-23 13:23:04.080
8.0, -86988.31790546393, -119987.24877682315, 46368.31389287876, 53407.392311977426, 62968.12748529047, 112825.9286672984, 64871.15500821531, 71050.63003905179, 0.04, 0.9540000000000001, 0.076, 192.0, 0.0, 0.0, 0.0, 0.0, 0.0, 0.0, 0.0, 0.0, 0.0, 1.6665565840806203E9, 0.0, 2022-10-23 13:23:04.080
9.0, -86992.07299853241, -119989.55100650204, 45386.3123519793, 53568.36957554455, 63073.448905163874, 112492.7088609587, 64358.29423168829, 70698.4336016695, 0.04, 0.9540000000000001, 0.076, 192.0, 0.0, 0.0, 0.0, 0.0, 0.0, 0.0, 0.0, 0.0, 0.0, 1.666556584080628E9, 0.0, 2022-10-23 13:23:04.080
10.0, -87026.67349894924, -120015.4343265813, 46246.1169059416, 53725.189414642984, 63202.75374683783, 112925.03630221324, 64978.73395427871, 71429.06742442459, 0.04, 0.9540000000000001, 0.076, 192.0, 0.0, 0.0, 0.0, 0.0, 0.0, 0.0, 0.0, 0.0, 0.0, 1.666556584080645E9, 0.0, 2022-10-23 13:23:04.080
11.0, -87033.2449118191, -120023.32449237401, 48244.76519164624, 53713.186527870486, 63219.04816854575, 113727.1957072253, 66156.04503822864, 72479.64411731293, 0.04, 0.9540000000000001, 0.076, 192.0, 0.0, 0.0, 0.0, 0.0, 0.0, 0.0, 0.0, 0.0, 0.0, 1.6665565840806532E9, 0.0, 2022-10-23 13:23:04.080
12.0, -86972.11289073383, -119965.85815737942, 46818.54508144201, 53431.04045761114, 62988.28875878916, 113029.50835579734, 65164.54400593568, 71328.75279530916, 0.04, 0.9540000000000001, 0.076, 192.0, 0.0, 0.0, 0.0, 0.0, 0.0, 0.0, 0.0, 0.0, 0.0, 1.6665565840806634E9, 0.0, 2022-10-23 13:23:04.080
13.0, -86984.80868158444, -119977.65987845181, 45444.225721863004, 53553.95270037088, 63059.8813962795, 112514.4571083137, 64387.10563029118, 70690.54343587678, 0.038, 0.96, 0.076, 192.0, 1.0, 48.0, 30.0, 0.0, 2.0, 96.0, 0.0, 0.0, 0.0, 1.666556584080674E9, 0.0, 2022-10-23 13:23:04.080
14.0, -87019.07390583443, -120012.50624805765, 45949.24103608621, 53683.7716321673, 63169.04731619923, 112797.16197218442, 64794.712042178166, 71229.95808481671, 0.038, 0.96, 0.076, 192.0, 0.0, 0.0, 0.0, 0.0, 0.0, 0.0, 0.0, 0.0, 0.0, 1.6665565840806825E9, 0.0, 2022-10-23 13:23:04.080
15.0, -87032.52965599652, -120025.1796871638, 48055.22239866524, 53757.64414759209, 63245.49028223637, 113666.57777626251, 66069.18615927531, 72427.96688413226, 0.038, 0.96, 0.076, 192.0, 0.0, 0.0, 0.0, 0.0, 0.0, 0.0, 0.0, 0.0, 0.0, 1.66655658408069E9, 0.0, 2022-10-23 13:23:04.080
16.0, -86970.05653024395, -119963.4665207227, 47256.01342392128, 53454.353327078024, 63018.597724270556, 113218.26883772241, 65444.87958489414, 71608.48487716733, 0.038, 0.96, 0.076, 192.0, 0.0, 0.0, 0.0, 0.0, 0.0, 0.0, 0.0, 0.0, 0.0, 1.6665565840806987E9, 0.0, 2022-10-23 13:23:04.080
17.0, -86993.59291715539, -119985.68415471127, 45510.83392033981, 53511.484385905795, 63018.88829694847, 112517.4075385818, 64405.63522644463, 70668.37050537713, 0.038, 0.96, 0.076, 192.0, 0.0, 0.0, 0.0, 0.0, 0.0, 0.0, 0.0, 0.0, 0.0, 1.6665565840807066E9, 0.0, 2022-10-23 13:23:04.080
18.0, -87008.65799291826, -120002.35855607493, 45733.09966720339, 53653.14974226353, 63134.82679543815, 112699.9542355483, 64650.07390380787, 71058.18492867767, 0.038, 0.96, 0.076, 192.0, 0.0, 0.0, 0.0, 0.0, 0.0, 0.0, 0.0, 0.0, 0.0, 1.666556584080716E9, 0.0, 2022-10-23 13:23:04.080
19.0, -87028.46163850566, -120021.20107665076, 47737.58175821087, 53789.696549141, 63250.49707299437, 113545.76659748158, 65888.42760186525, 72279.88657711585, 0.038, 0.96, 0.076, 192.0, 0.0, 0.0, 0.0, 0.0, 0.0, 0.0, 0.0, 0.0, 0.0, 1.6665565840807269E9, 0.0, 2022-10-23 13:23:04.080
